EXPLAIN
TAG	CORPOT
TITLE	LABEL	Open Circuit Potential	Test &Identifier
DATE	LABEL	2019-10-17	Date
TIME	LABEL	7:52:48	Time
NOTES	NOTES	1	&Notes...
	
PSTAT	PSTAT	REF3000-13111	Potentiostat
TIMEOUT	QUANT	9.00000E+004	Total &Time (s)
SAMPLETIME	QUANT	1.00000E+000	Sa&mple Period (s)
STABILITY	QUANT	0.00000E+000	Sta&bility (mV/s)
PSTATMODEL	IQUANT	5	Pstat Model
PSTATSECTION	LABEL	REF3000-13111	Pstat Section
PSTATSERIALNO	LABEL	13111	Pstat Serial Number
CTRLMODE	IQUANT	1	Control Mode
IESTAB	IQUANT	2	I/E Stability
CASPEED	IQUANT	2	Control Amp Speed
CONVENTION	IQUANT	1	Current Convention
ICHRANGE	IQUANT	2	Ich Range
ICHRANGEMODE	TOGGLE	T	Ich Auto Range
ICHOFFSETENABLE	TOGGLE	F	Ich Offset Enable
ICHOFFSET	QUANT	0	Ich Offset (V)
ICHFILTER	IQUANT	3	Ich Filter
VCHRANGE	IQUANT	3	Vch Range
VCHRANGEMODE	TOGGLE	T	Vch Auto Range
VCHOFFSETENABLE	TOGGLE	F	Vch Offset Enable
VCHOFFSET	QUANT	0	Vch Offset (V)
VCHFILTER	IQUANT	3	Vch Filter
ACHRANGE	IQUANT	2	Ach Range
ACHOFFSETENABLE	TOGGLE	F	Ach Offset Enable
ACHOFFSET	QUANT	0	Ach Offset (V)
ACHFILTER	IQUANT	3	Ach Filter
IERANGELOWERLIMIT	IQUANT	2	I/E Range Lower Limit
IERANGEMODE	TOGGLE	T	I/E AutoRange
IERANGE	IQUANT	11	I/E Range
POSFEEDENABLE	TOGGLE	F	Positive Feedback IR Comp
POSFEEDRESISTANCE	QUANT	0	Positive Feedback Resistance (ohm)
ACHSELECT	IQUANT	0	Ach Select
CABLEID	IQUANT	14	Cable ID
DCCALDATE	LABEL	2019-10-1	DC Calibration Date
ACCALDATE	LABEL	2019-10-1	AC Calibration Date
THERMOSELECT	IQUANT	1	Thermo Select
FRAMEWORKVERSION	QUANT	6.33	Framework Version
INSTRUMENTVERSION	LABEL	3.50	Instrument Version
COMPLIANCEVOLTAGE	IQUANT	0	Compliance Voltage
CURVE	TABLE	1868
	Pt	T	Vf	Vm	Ach	Over
	#	s	V vs. Ref.	V	V	bits
	0	1.00833	1.04244E+000	1.04244E+000	7.16439E-004	...........
	1	2.01667	1.04241E+000	1.04098E+000	7.17072E-004	...........
	2	3.025	1.04229E+000	1.04231E+000	7.20147E-004	...........
	3	4.03333	1.04209E+000	1.04168E+000	7.19881E-004	...........
	4	5.04167	1.04193E+000	1.04235E+000	7.16364E-004	...........
	5	6.05	1.04189E+000	1.04167E+000	7.14181E-004	...........
	6	7.05833	1.04192E+000	1.04216E+000	7.14181E-004	...........
	7	8.06667	1.04196E+000	1.04191E+000	7.12914E-004	...........
	8	9.075	1.04197E+000	1.04177E+000	7.17331E-004	...........
	9	10.0833	1.04197E+000	1.04258E+000	7.17589E-004	...........
	10	11.0917	1.04203E+000	1.04366E+000	7.24397E-004	...........
	11	12.1	1.04222E+000	1.04207E+000	7.20839E-004	...........
	12	13.1083	1.04251E+000	1.04346E+000	7.22264E-004	...........
	13	14.1167	1.04273E+000	1.04251E+000	7.11756E-004	...........
	14	15.125	1.04287E+000	1.04424E+000	7.09039E-004	...........
	15	16.1333	1.04300E+000	1.04299E+000	7.16447E-004	...........
	16	17.1417	1.04325E+000	1.04733E+000	7.14456E-004	...........
	17	18.15	1.04369E+000	1.04284E+000	7.17522E-004	...........
	18	19.1583	1.04417E+000	1.04289E+000	7.19272E-004	...........
	19	20.1667	1.04430E+000	1.04354E+000	7.20356E-004	...........
	20	21.175	1.04402E+000	1.04383E+000	7.19381E-004	...........
	21	22.1833	1.04369E+000	1.04407E+000	7.08906E-004	...........
	22	23.1917	1.04359E+000	1.04357E+000	7.12773E-004	...........
	23	24.2	1.04366E+000	1.04404E+000	7.08223E-004	...........
	24	25.2083	1.04373E+000	1.04213E+000	7.11173E-004	...........
	25	26.2167	1.04365E+000	1.04331E+000	7.14139E-004	...........
	26	27.225	1.04341E+000	1.04297E+000	7.17081E-004	...........
	27	28.2333	1.04318E+000	1.04337E+000	7.12898E-004	...........
	28	29.2417	1.04308E+000	1.04360E+000	7.12931E-004	...........
	29	30.25	1.04313E+000	1.04291E+000	7.05764E-004	...........
	30	31.2583	1.04322E+000	1.04315E+000	7.11839E-004	...........
	31	32.2667	1.04322E+000	1.04203E+000	7.09864E-004	...........
	32	33.275	1.04310E+000	1.04360E+000	7.09864E-004	...........
	33	34.2833	1.04295E+000	1.04270E+000	7.09498E-004	...........
	34	35.2917	1.04287E+000	1.04217E+000	7.12548E-004	...........
	35	36.3	1.04282E+000	1.04306E+000	7.14306E-004	...........
	36	37.3083	1.04276E+000	1.04327E+000	7.17631E-004	...........
	37	38.3167	1.04275E+000	1.04168E+000	7.17256E-004	...........
	38	39.325	1.04275E+000	1.04324E+000	7.14181E-004	...........
	39	40.3333	1.04270E+000	1.04210E+000	7.14431E-004	...........
	40	41.3417	1.04260E+000	1.04181E+000	7.10981E-004	...........
	41	42.35	1.04249E+000	1.04299E+000	7.12373E-004	...........
	42	43.3583	1.04240E+000	1.04312E+000	7.19856E-004	...........
	43	44.3667	1.04245E+000	1.04268E+000	7.12489E-004	...........
	44	45.375	1.04262E+000	1.04318E+000	7.13664E-004	...........
	45	46.3833	1.04280E+000	1.04301E+000	7.20497E-004	...........
	46	47.3917	1.04295E+000	1.04423E+000	7.15639E-004	...........
	47	48.4	1.04316E+000	1.04512E+000	7.15756E-004	...........
	48	49.4083	1.04348E+000	1.04191E+000	7.10089E-004	...........
	49	50.4167	1.04373E+000	1.04344E+000	7.16731E-004	...........
	50	51.425	1.04365E+000	1.04183E+000	7.06431E-004	...........
	51	52.4333	1.04332E+000	1.04363E+000	7.16697E-004	...........
	52	53.4417	1.04300E+000	1.04331E+000	7.15306E-004	...........
	53	54.45	1.04293E+000	1.04399E+000	7.15189E-004	...........
	54	55.4583	1.04308E+000	1.04248E+000	7.12331E-004	...........
	55	56.4667	1.04324E+000	1.04267E+000	7.15881E-004	...........
	56	57.475	1.04322E+000	1.04329E+000	7.23381E-004	...........
	57	58.4833	1.04309E+000	1.04316E+000	7.15997E-004	...........
	58	59.4917	1.04302E+000	1.04328E+000	7.14773E-004	...........
	59	60.5	1.04307E+000	1.04369E+000	7.17181E-004	...........
	60	61.5083	1.04319E+000	1.04349E+000	7.15064E-004	...........
	61	62.5167	1.04335E+000	1.04437E+000	7.12406E-004	...........
	62	63.525	1.04352E+000	1.04256E+000	7.22747E-004	...........
	63	64.5333	1.04358E+000	1.04239E+000	7.16647E-004	...........
	64	65.5417	1.04341E+000	1.04208E+000	7.17889E-004	...........
	65	66.55	1.04303E+000	1.04206E+000	7.17131E-004	...........
	66	67.5583	1.04262E+000	1.04278E+000	7.11106E-004	...........
	67	68.5667	1.04239E+000	1.04330E+000	7.16831E-004	...........
	68	69.575	1.04242E+000	1.04258E+000	7.21631E-004	...........
	69	70.5833	1.04261E+000	1.04330E+000	7.16581E-004	...........
	70	71.5917	1.04280E+000	1.04236E+000	7.15997E-004	...........
	71	72.6	1.04288E+000	1.04285E+000	7.21172E-004	...........
	72	73.6083	1.04287E+000	1.04324E+000	7.20481E-004	...........
	73	74.6167	1.04287E+000	1.04377E+000	7.16797E-004	...........
	74	75.625	1.04297E+000	1.04268E+000	7.24014E-004	...........
	75	76.6333	1.04311E+000	1.04325E+000	7.14956E-004	...........
	76	77.6417	1.04318E+000	1.04310E+000	7.13406E-004	...........
	77	78.65	1.04315E+000	1.04204E+000	7.17181E-004	...........
	78	79.6583	1.04300E+000	1.04137E+000	7.18664E-004	...........
	79	80.6667	1.04274E+000	1.04440E+000	7.24214E-004	...........
	80	81.675	1.04255E+000	1.04262E+000	7.22281E-004	...........
	81	82.6833	1.04263E+000	1.04343E+000	7.21014E-004	...........
	82	83.6917	1.04288E+000	1.04345E+000	7.22822E-004	...........
	83	84.7	1.04311E+000	1.04321E+000	7.17506E-004	...........
	84	85.7083	1.04325E+000	1.04291E+000	7.16564E-004	...........
	85	86.7167	1.04327E+000	1.04277E+000	7.15172E-004	...........
	86	87.725	1.04320E+000	1.04463E+000	7.14647E-004	...........
	87	88.7333	1.04325E+000	1.04538E+000	7.16706E-004	...........
	88	89.7417	1.04356E+000	1.04281E+000	7.19506E-004	...........
	89	90.75	1.04392E+000	1.04371E+000	7.10906E-004	...........
	90	91.7583	1.04403E+000	1.04328E+000	7.14372E-004	...........
	91	92.7667	1.04386E+000	1.04379E+000	7.15223E-004	...........
	92	93.775	1.04366E+000	1.04348E+000	7.11698E-004	...........
	93	94.7833	1.04358E+000	1.04466E+000	7.11339E-004	...........
	94	95.792	1.04363E+000	1.04271E+000	7.08714E-004	...........
	95	96.8	1.04371E+000	1.04381E+000	7.08889E-004	...........
	96	97.808	1.04368E+000	1.04266E+000	7.04898E-004	...........
	97	98.817	1.04355E+000	1.04424E+000	7.11506E-004	...........
	98	99.825	1.04344E+000	1.04334E+000	7.10089E-004	...........
	99	100.833	1.04346E+000	1.04459E+000	7.06789E-004	...........
	100	101.842	1.04360E+000	1.04327E+000	7.09681E-004	...........
	101	102.85	1.04374E+000	1.04361E+000	7.08823E-004	...........
	102	103.858	1.04381E+000	1.04497E+000	7.06289E-004	...........
	103	104.867	1.04388E+000	1.04497E+000	7.12206E-004	...........
	104	105.875	1.04412E+000	1.04525E+000	7.07764E-004	...........
	105	106.883	1.04447E+000	1.04444E+000	7.05773E-004	...........
	106	107.892	1.04474E+000	1.04449E+000	7.10131E-004	...........
	107	108.9	1.04483E+000	1.04514E+000	7.14081E-004	...........
	108	109.908	1.04484E+000	1.04686E+000	7.04964E-004	...........
	109	110.917	1.04497E+000	1.04367E+000	7.09589E-004	...........
	110	111.925	1.04514E+000	1.04407E+000	7.06156E-004	...........
	111	112.933	1.04506E+000	1.04374E+000	7.09756E-004	...........
	112	113.942	1.04470E+000	1.04480E+000	7.14256E-004	...........
	113	114.95	1.04432E+000	1.04216E+000	7.15564E-004	...........
	114	115.958	1.04401E+000	1.04341E+000	7.12114E-004	...........
	115	116.967	1.04372E+000	1.04465E+000	7.11814E-004	...........
	116	117.975	1.04356E+000	1.04429E+000	7.11473E-004	...........
	117	118.983	1.04369E+000	1.04478E+000	7.14031E-004	...........
	118	119.992	1.04399E+000	1.04391E+000	7.11531E-004	...........
	119	121	1.04427E+000	1.04569E+000	7.13422E-004	...........
	120	122.008	1.04447E+000	1.04396E+000	7.12423E-004	...........
	121	123.017	1.04459E+000	1.04436E+000	7.15339E-004	...........
	122	124.025	1.04459E+000	1.04365E+000	7.15206E-004	...........
	123	125.033	1.04444E+000	1.04419E+000	7.11914E-004	...........
	124	126.042	1.04424E+000	1.04438E+000	7.19397E-004	...........
	125	127.05	1.04413E+000	1.04438E+000	7.15939E-004	...........
	126	128.058	1.04414E+000	1.04359E+000	7.18947E-004	...........
	127	129.067	1.04414E+000	1.04359E+000	7.13839E-004	...........
	128	130.075	1.04406E+000	1.04420E+000	7.12198E-004	...........
	129	131.083	1.04394E+000	1.04373E+000	7.16772E-004	...........
	130	132.092	1.04388E+000	1.04403E+000	7.09981E-004	...........
	131	133.1	1.04390E+000	1.04518E+000	7.14123E-004	...........
	132	134.108	1.04400E+000	1.04273E+000	7.08923E-004	...........
	133	135.117	1.04405E+000	1.04207E+000	7.13081E-004	...........
	134	136.125	1.04383E+000	1.04364E+000	7.18089E-004	...........
	135	137.133	1.04343E+000	1.04300E+000	7.12998E-004	...........
	136	138.142	1.04314E+000	1.04370E+000	7.05906E-004	...........
	137	139.15	1.04308E+000	1.04238E+000	7.13573E-004	...........
	138	140.158	1.04310E+000	1.04242E+000	7.11789E-004	...........
	139	141.167	1.04302E+000	1.04277E+000	7.16689E-004	...........
	140	142.175	1.04285E+000	1.04304E+000	7.11148E-004	...........
	141	143.183	1.04272E+000	1.04173E+000	7.13739E-004	...........
	142	144.192	1.04266E+000	1.04373E+000	7.16606E-004	...........
	143	145.2	1.04263E+000	1.04140E+000	7.09239E-004	...........
	144	146.208	1.04259E+000	1.04261E+000	7.10023E-004	...........
	145	147.217	1.04250E+000	1.04192E+000	7.10923E-004	...........
	146	148.225	1.04238E+000	1.04354E+000	7.15164E-004	...........
	147	149.233	1.04238E+000	1.04238E+000	7.09698E-004	...........
	148	150.242	1.04249E+000	1.04231E+000	7.07523E-004	...........
	149	151.25	1.04259E+000	1.04252E+000	7.12139E-004	...........
	150	152.258	1.04260E+000	1.04346E+000	7.13239E-004	...........
	151	153.267	1.04263E+000	1.04264E+000	7.11598E-004	...........
	152	154.275	1.04271E+000	1.04221E+000	7.09773E-004	...........
	153	155.283	1.04274E+000	1.04186E+000	7.12689E-004	...........
	154	156.292	1.04263E+000	1.04325E+000	7.10114E-004	...........
	155	157.3	1.04247E+000	1.04087E+000	7.08339E-004	...........
	156	158.308	1.04233E+000	1.04299E+000	7.13747E-004	...........
	157	159.317	1.04222E+000	1.04200E+000	7.12198E-004	...........
	158	160.325	1.04218E+000	1.04268E+000	7.10698E-004	...........
	159	161.333	1.04222E+000	1.04145E+000	7.18197E-004	...........
	160	162.342	1.04226E+000	1.04360E+000	7.21172E-004	...........
	161	163.35	1.04231E+000	1.04231E+000	7.10881E-004	...........
	162	164.358	1.04243E+000	1.04282E+000	7.12923E-004	...........
	163	165.367	1.04256E+000	1.04208E+000	7.12239E-004	...........
	164	166.375	1.04260E+000	1.04212E+000	7.09198E-004	...........
	165	167.383	1.04251E+000	1.04255E+000	7.17731E-004	...........
	166	168.392	1.04243E+000	1.04418E+000	7.17164E-004	...........
	167	169.4	1.04254E+000	1.04373E+000	7.13356E-004	...........
	168	170.408	1.04290E+000	1.04349E+000	7.11173E-004	...........
	169	171.417	1.04325E+000	1.04054E+000	7.10998E-004	...........
	170	172.425	1.04322E+000	1.04222E+000	7.10806E-004	...........
	171	173.433	1.04281E+000	1.04323E+000	7.08714E-004	...........
	172	174.442	1.04241E+000	1.04215E+000	7.13239E-004	...........
	173	175.45	1.04229E+000	1.04235E+000	7.13498E-004	...........
	174	176.458	1.04233E+000	1.04139E+000	7.19122E-004	...........
	175	177.467	1.04228E+000	1.04156E+000	7.16606E-004	...........
	176	178.475	1.04209E+000	1.04223E+000	7.13898E-004	...........
	177	179.483	1.04190E+000	1.04166E+000	7.17456E-004	...........
	178	180.492	1.04181E+000	1.04186E+000	7.05948E-004	...........
	179	181.5	1.04183E+000	1.04275E+000	7.14531E-004	...........
	180	182.508	1.04194E+000	1.04314E+000	7.05281E-004	...........
	181	183.517	1.04218E+000	1.04296E+000	7.09498E-004	...........
	182	184.525	1.04250E+000	1.04239E+000	7.17756E-004	...........
	183	185.533	1.04271E+000	1.04195E+000	7.20139E-004	...........
	184	186.542	1.04269E+000	1.04176E+000	7.14031E-004	...........
	185	187.55	1.04247E+000	1.04256E+000	7.14006E-004	...........
	186	188.558	1.04227E+000	1.04300E+000	7.18022E-004	...........
	187	189.567	1.04225E+000	1.04280E+000	7.15864E-004	...........
	188	190.575	1.04241E+000	1.04216E+000	7.12239E-004	...........
	189	191.583	1.04258E+000	1.04329E+000	7.15139E-004	...........
	190	192.592	1.04268E+000	1.04305E+000	7.18864E-004	...........
	191	193.6	1.04274E+000	1.04102E+000	7.14947E-004	...........
	192	194.608	1.04264E+000	1.04033E+000	7.20314E-004	...........
	193	195.617	1.04226E+000	1.04235E+000	7.16214E-004	...........
	194	196.625	1.04174E+000	1.03947E+000	7.15181E-004	...........
	195	197.633	1.04138E+000	1.04501E+000	7.11956E-004	...........
	196	198.642	1.04132E+000	1.03836E+000	7.08948E-004	...........
	197	199.65	1.04134E+000	1.03737E+000	7.03406E-004	...........
	198	200.658	1.04081E+000	1.03393E+000	7.12798E-004	...........
	199	201.667	1.03934E+000	1.03185E+000	7.13006E-004	...........
	200	202.675	1.03714E+000	1.02936E+000	7.14797E-004	...........
	201	203.683	1.03469E+000	1.03063E+000	7.19306E-004	...........
	202	204.692	1.03259E+000	1.03238E+000	7.18831E-004	...........
	203	205.7	1.03139E+000	1.03366E+000	7.18472E-004	...........
	204	206.708	1.03129E+000	1.03322E+000	7.21314E-004	...........
	205	207.717	1.03195E+000	1.03530E+000	7.15097E-004	...........
	206	208.725	1.03287E+000	1.03532E+000	7.14306E-004	...........
	207	209.733	1.03376E+000	1.03430E+000	7.12431E-004	...........
	208	210.742	1.03443E+000	1.03501E+000	7.12464E-004	...........
	209	211.75	1.03478E+000	1.03581E+000	7.18522E-004	...........
	210	212.758	1.03499E+000	1.03686E+000	7.20439E-004	...........
	211	213.767	1.03529E+000	1.03548E+000	7.23747E-004	...........
	212	214.775	1.03566E+000	1.03607E+000	7.14264E-004	...........
	213	215.783	1.03592E+000	1.03622E+000	7.10839E-004	...........
	214	216.792	1.03601E+000	1.03536E+000	7.15972E-004	...........
	215	217.8	1.03599E+000	1.03594E+000	7.20964E-004	...........
	216	218.808	1.03591E+000	1.03563E+000	7.19422E-004	...........
	217	219.817	1.03587E+000	1.03834E+000	7.15606E-004	...........
	218	220.825	1.03620E+000	1.04578E+000	7.23356E-004	...........
	219	221.833	1.03728E+000	1.03476E+000	7.17547E-004	...........
	220	222.842	1.03847E+000	1.03092E+000	7.22514E-004	...........
	221	223.85	1.03831E+000	1.03080E+000	7.16114E-004	...........
	222	224.858	1.03636E+000	1.02985E+000	7.13639E-004	...........
	223	225.867	1.03373E+000	1.02997E+000	7.12806E-004	...........
	224	226.875	1.03196E+000	1.04654E+000	7.18056E-004	...........
	225	227.883	1.03241E+000	1.04585E+000	7.19639E-004	...........
	226	228.892	1.03553E+000	1.04619E+000	7.21056E-004	...........
	227	229.9	1.03990E+000	1.04610E+000	7.24506E-004	...........
	228	230.908	1.04349E+000	1.04537E+000	7.25997E-004	...........
	229	231.917	1.04538E+000	1.04467E+000	7.23031E-004	...........
	230	232.925	1.04586E+000	1.04452E+000	7.20606E-004	...........
	231	233.933	1.04559E+000	1.04455E+000	7.12039E-004	...........
	232	234.942	1.04517E+000	1.04697E+000	7.11081E-004	...........
	233	235.95	1.04503E+000	1.04544E+000	7.16881E-004	...........
	234	236.958	1.04522E+000	1.04509E+000	7.19289E-004	...........
	235	237.967	1.04546E+000	1.04466E+000	7.19239E-004	...........
	236	238.975	1.04546E+000	1.04538E+000	7.14664E-004	...........
	237	239.983	1.04530E+000	1.04510E+000	7.20197E-004	...........
	238	240.992	1.04517E+000	1.04551E+000	7.18664E-004	...........
	239	242	1.04514E+000	1.04470E+000	7.14214E-004	...........
	240	243.008	1.04517E+000	1.04558E+000	7.16498E-004	...........
	241	244.017	1.04519E+000	1.04570E+000	7.10398E-004	...........
	242	245.025	1.04525E+000	1.04521E+000	7.15714E-004	...........
	243	246.033	1.04533E+000	1.04478E+000	7.12881E-004	...........
	244	247.042	1.04535E+000	1.04555E+000	7.19756E-004	...........
	245	248.05	1.04529E+000	1.04566E+000	7.18781E-004	...........
	246	249.058	1.04529E+000	1.04578E+000	7.20497E-004	...........
	247	250.067	1.04541E+000	1.04638E+000	7.21997E-004	...........
	248	251.075	1.04563E+000	1.04680E+000	7.15989E-004	...........
	249	252.083	1.04592E+000	1.04624E+000	7.20356E-004	...........
	250	253.092	1.04619E+000	1.04568E+000	7.15414E-004	...........
	251	254.1	1.04630E+000	1.04632E+000	7.10681E-004	...........
	252	255.108	1.04624E+000	1.04521E+000	7.15572E-004	...........
	253	256.117	1.04606E+000	1.04488E+000	7.19472E-004	...........
	254	257.125	1.04579E+000	1.04539E+000	7.19914E-004	...........
	255	258.133	1.04553E+000	1.04646E+000	7.21331E-004	...........
	256	259.142	1.04543E+000	1.04532E+000	7.19256E-004	...........
	257	260.15	1.04551E+000	1.04505E+000	7.18464E-004	...........
	258	261.158	1.04556E+000	1.04519E+000	7.21456E-004	...........
	259	262.167	1.04549E+000	1.04562E+000	7.18172E-004	...........
	260	263.175	1.04539E+000	1.04595E+000	7.25064E-004	...........
	261	264.183	1.04541E+000	1.04587E+000	7.15731E-004	...........
	262	265.192	1.04554E+000	1.04516E+000	7.24006E-004	...........
	263	266.2	1.04564E+000	1.04538E+000	7.19781E-004	...........
	264	267.208	1.04561E+000	1.04563E+000	7.17414E-004	...........
	265	268.217	1.04552E+000	1.04502E+000	7.17831E-004	...........
	266	269.225	1.04543E+000	1.04498E+000	7.14464E-004	...........
	267	270.233	1.04534E+000	1.04571E+000	7.07764E-004	...........
	268	271.242	1.04524E+000	1.04378E+000	7.18681E-004	...........
	269	272.25	1.04514E+000	1.04627E+000	7.16822E-004	...........
	270	273.258	1.04504E+000	1.04329E+000	7.18239E-004	...........
	271	274.267	1.04492E+000	1.04469E+000	7.18847E-004	...........
	272	275.275	1.04474E+000	1.04448E+000	7.09756E-004	...........
	273	276.283	1.04456E+000	1.04445E+000	7.12773E-004	...........
	274	277.292	1.04447E+000	1.04521E+000	7.12006E-004	...........
	275	278.3	1.04453E+000	1.04528E+000	7.06898E-004	...........
	276	279.308	1.04471E+000	1.04538E+000	7.08023E-004	...........
	277	280.317	1.04497E+000	1.04603E+000	7.07706E-004	...........
	278	281.325	1.04523E+000	1.04548E+000	7.11898E-004	...........
	279	282.333	1.04546E+000	1.04576E+000	7.04306E-004	...........
	280	283.342	1.04562E+000	1.04590E+000	7.12948E-004	...........
	281	284.35	1.04569E+000	1.04497E+000	7.10639E-004	...........
	282	285.358	1.04564E+000	1.04405E+000	7.10239E-004	...........
	283	286.367	1.04540E+000	1.04405E+000	7.06481E-004	...........
