EXPLAIN
TAG	CORPOT
TITLE	LABEL	Open Circuit Potential	Test &Identifier
DATE	LABEL	2019-10-17	Date
TIME	LABEL	0:25:56	Time
NOTES	NOTES	1	&Notes...
	
PSTAT	PSTAT	REF3000-13111	Potentiostat
TIMEOUT	QUANT	9.00000E+004	Total &Time (s)
SAMPLETIME	QUANT	1.00000E+000	Sa&mple Period (s)
STABILITY	QUANT	0.00000E+000	Sta&bility (mV/s)
PSTATMODEL	IQUANT	5	Pstat Model
PSTATSECTION	LABEL	REF3000-13111	Pstat Section
PSTATSERIALNO	LABEL	13111	Pstat Serial Number
CTRLMODE	IQUANT	1	Control Mode
IESTAB	IQUANT	2	I/E Stability
CASPEED	IQUANT	2	Control Amp Speed
CONVENTION	IQUANT	1	Current Convention
ICHRANGE	IQUANT	2	Ich Range
ICHRANGEMODE	TOGGLE	T	Ich Auto Range
ICHOFFSETENABLE	TOGGLE	F	Ich Offset Enable
ICHOFFSET	QUANT	0	Ich Offset (V)
ICHFILTER	IQUANT	3	Ich Filter
VCHRANGE	IQUANT	3	Vch Range
VCHRANGEMODE	TOGGLE	T	Vch Auto Range
VCHOFFSETENABLE	TOGGLE	F	Vch Offset Enable
VCHOFFSET	QUANT	0	Vch Offset (V)
VCHFILTER	IQUANT	3	Vch Filter
ACHRANGE	IQUANT	2	Ach Range
ACHOFFSETENABLE	TOGGLE	F	Ach Offset Enable
ACHOFFSET	QUANT	0	Ach Offset (V)
ACHFILTER	IQUANT	3	Ach Filter
IERANGELOWERLIMIT	IQUANT	2	I/E Range Lower Limit
IERANGEMODE	TOGGLE	T	I/E AutoRange
IERANGE	IQUANT	11	I/E Range
POSFEEDENABLE	TOGGLE	F	Positive Feedback IR Comp
POSFEEDRESISTANCE	QUANT	0	Positive Feedback Resistance (ohm)
ACHSELECT	IQUANT	0	Ach Select
CABLEID	IQUANT	14	Cable ID
DCCALDATE	LABEL	2019-10-1	DC Calibration Date
ACCALDATE	LABEL	2019-10-1	AC Calibration Date
THERMOSELECT	IQUANT	1	Thermo Select
FRAMEWORKVERSION	QUANT	6.33	Framework Version
INSTRUMENTVERSION	LABEL	3.50	Instrument Version
COMPLIANCEVOLTAGE	IQUANT	0	Compliance Voltage
CURVE	TABLE	1600
	Pt	T	Vf	Vm	Ach	Over
	#	s	V vs. Ref.	V	V	bits
	0	1.00833	1.05664E+000	1.05664E+000	7.65913E-004	...........
	1	2.01667	1.05661E+000	1.05491E+000	7.63730E-004	...........
	2	3.025	1.05646E+000	1.05616E+000	7.65672E-004	...........
	3	4.03333	1.05621E+000	1.05666E+000	7.59713E-004	...........
	4	5.04167	1.05607E+000	1.05711E+000	7.62880E-004	...........
	5	6.05	1.05618E+000	1.05680E+000	7.62947E-004	...........
	6	7.05833	1.05645E+000	1.05657E+000	7.71005E-004	...........
	7	8.06667	1.05669E+000	1.05762E+000	7.66338E-004	...........
	8	9.075	1.05687E+000	1.05796E+000	7.63580E-004	...........
	9	10.0833	1.05712E+000	1.05940E+000	7.69105E-004	...........
	10	11.0917	1.05750E+000	1.05595E+000	7.69880E-004	...........
	11	12.1	1.05776E+000	1.05599E+000	7.71305E-004	...........
	12	13.1083	1.05760E+000	1.05653E+000	7.60588E-004	...........
	13	14.1167	1.05711E+000	1.05657E+000	7.58347E-004	...........
	14	15.125	1.05668E+000	1.05690E+000	7.64255E-004	...........
	15	16.1333	1.05651E+000	1.05666E+000	7.66147E-004	...........
	16	17.1417	1.05655E+000	1.05647E+000	7.66438E-004	...........
	17	18.15	1.05662E+000	1.05693E+000	7.64530E-004	...........
	18	19.1583	1.05665E+000	1.05598E+000	7.59380E-004	...........
	19	20.1667	1.05661E+000	1.05593E+000	7.75247E-004	...........
	20	21.175	1.05649E+000	1.05661E+000	7.68113E-004	...........
	21	22.1833	1.05635E+000	1.05674E+000	7.59663E-004	...........
	22	23.1917	1.05633E+000	1.05702E+000	7.64522E-004	...........
	23	24.2	1.05647E+000	1.05723E+000	7.67747E-004	...........
	24	25.2083	1.05669E+000	1.05673E+000	7.66980E-004	...........
	25	26.2167	1.05688E+000	1.05727E+000	7.69588E-004	...........
	26	27.225	1.05699E+000	1.05731E+000	7.70913E-004	...........
	27	28.2333	1.05706E+000	1.05667E+000	7.66688E-004	...........
	28	29.2417	1.05710E+000	1.05735E+000	7.60380E-004	...........
	29	30.25	1.05710E+000	1.05758E+000	7.71563E-004	...........
	30	31.2583	1.05716E+000	1.05803E+000	7.67388E-004	...........
	31	32.2667	1.05733E+000	1.05872E+000	7.62030E-004	...........
	32	33.275	1.05761E+000	1.05715E+000	7.65463E-004	...........
	33	34.2833	1.05785E+000	1.05768E+000	7.70722E-004	...........
	34	35.2917	1.05789E+000	1.05689E+000	7.56889E-004	...........
	35	36.3	1.05770E+000	1.05578E+000	7.65005E-004	...........
	36	37.3083	1.05731E+000	1.05585E+000	7.64488E-004	...........
	37	38.3167	1.05682E+000	1.05625E+000	7.63930E-004	...........
	38	39.325	1.05639E+000	1.05659E+000	7.66647E-004	...........
	39	40.3333	1.05620E+000	1.05652E+000	7.67255E-004	...........
	40	41.3417	1.05623E+000	1.05649E+000	7.65680E-004	...........
	41	42.35	1.05634E+000	1.05590E+000	7.66613E-004	...........
	42	43.3583	1.05639E+000	1.05657E+000	7.63605E-004	...........
	43	44.3667	1.05637E+000	1.05635E+000	7.66713E-004	...........
	44	45.375	1.05632E+000	1.05525E+000	7.68130E-004	...........
	45	46.3833	1.05621E+000	1.05535E+000	7.60513E-004	...........
	46	47.3917	1.05600E+000	1.05591E+000	7.71538E-004	...........
	47	48.4	1.05578E+000	1.05586E+000	7.70580E-004	...........
	48	49.4083	1.05569E+000	1.05636E+000	7.75472E-004	...........
	49	50.4167	1.05577E+000	1.05669E+000	7.65938E-004	...........
	50	51.425	1.05599E+000	1.05655E+000	7.65822E-004	...........
	51	52.4333	1.05623E+000	1.05632E+000	7.64047E-004	...........
	52	53.4417	1.05641E+000	1.05667E+000	7.61955E-004	...........
	53	54.45	1.05649E+000	1.05598E+000	7.59805E-004	...........
	54	55.4583	1.05647E+000	1.05676E+000	7.60655E-004	...........
	55	56.4667	1.05644E+000	1.05671E+000	7.63922E-004	...........
	56	57.475	1.05646E+000	1.05673E+000	7.59013E-004	...........
	57	58.4833	1.05655E+000	1.05676E+000	7.62030E-004	...........
	58	59.4917	1.05665E+000	1.05730E+000	7.58997E-004	...........
	59	60.5	1.05677E+000	1.05721E+000	7.64813E-004	...........
	60	61.5083	1.05691E+000	1.05701E+000	7.51522E-004	...........
	61	62.5167	1.05702E+000	1.05647E+000	7.51155E-004	...........
	62	63.525	1.05704E+000	1.05732E+000	7.66763E-004	...........
	63	64.5333	1.05701E+000	1.05799E+000	7.65180E-004	...........
	64	65.5417	1.05705E+000	1.05619E+000	7.68122E-004	...........
	65	66.55	1.05710E+000	1.05592E+000	7.64122E-004	...........
	66	67.5583	1.05698E+000	1.05616E+000	7.61047E-004	...........
	67	68.5667	1.05668E+000	1.05637E+000	7.59472E-004	...........
	68	69.575	1.05638E+000	1.05609E+000	7.61972E-004	...........
	69	70.5833	1.05622E+000	1.05588E+000	7.60780E-004	...........
	70	71.5917	1.05613E+000	1.05517E+000	7.62647E-004	...........
	71	72.6	1.05601E+000	1.05665E+000	7.55072E-004	...........
	72	73.6083	1.05592E+000	1.05678E+000	7.58913E-004	...........
	73	74.6167	1.05601E+000	1.05694E+000	7.56480E-004	...........
	74	75.625	1.05627E+000	1.05710E+000	7.56230E-004	...........
	75	76.6333	1.05659E+000	1.05702E+000	7.61780E-004	...........
	76	77.6417	1.05684E+000	1.05721E+000	7.57938E-004	...........
	77	78.65	1.05700E+000	1.05685E+000	7.61555E-004	...........
	78	79.6583	1.05705E+000	1.05671E+000	7.61105E-004	...........
	79	80.6667	1.05701E+000	1.05616E+000	7.66547E-004	...........
	80	81.675	1.05686E+000	1.05627E+000	7.76305E-004	...........
	81	82.6833	1.05664E+000	1.05617E+000	7.66430E-004	...........
	82	83.6917	1.05644E+000	1.05649E+000	7.66397E-004	...........
	83	84.7	1.05633E+000	1.05699E+000	7.60130E-004	...........
	84	85.7083	1.05636E+000	1.05631E+000	7.63222E-004	...........
	85	86.7167	1.05646E+000	1.05628E+000	7.68130E-004	...........
	86	87.725	1.05653E+000	1.05712E+000	7.58038E-004	...........
	87	88.7333	1.05656E+000	1.05682E+000	7.63088E-004	...........
	88	89.7417	1.05664E+000	1.05703E+000	7.55780E-004	...........
	89	90.75	1.05673E+000	1.05563E+000	7.53847E-004	...........
	90	91.7583	1.05673E+000	1.05630E+000	7.67230E-004	...........
	91	92.7667	1.05658E+000	1.05688E+000	7.52864E-004	...........
	92	93.775	1.05646E+000	1.05771E+000	7.56455E-004	...........
	93	94.7833	1.05655E+000	1.05732E+000	7.57689E-004	...........
	94	95.792	1.05685E+000	1.05748E+000	7.61638E-004	...........
	95	96.8	1.05716E+000	1.05762E+000	7.60980E-004	...........
	96	97.808	1.05738E+000	1.05766E+000	7.60405E-004	...........
	97	98.817	1.05748E+000	1.05651E+000	7.63522E-004	...........
	98	99.825	1.05745E+000	1.05677E+000	7.56122E-004	...........
	99	100.833	1.05724E+000	1.05535E+000	7.54347E-004	...........
	100	101.842	1.05688E+000	1.05601E+000	7.63830E-004	...........
	101	102.85	1.05646E+000	1.05640E+000	7.65097E-004	...........
	102	103.858	1.05617E+000	1.05631E+000	7.67772E-004	...........
	103	104.867	1.05609E+000	1.05644E+000	7.66847E-004	...........
	104	105.875	1.05618E+000	1.05677E+000	7.59197E-004	...........
	105	106.883	1.05632E+000	1.05653E+000	7.66997E-004	...........
	106	107.892	1.05645E+000	1.05595E+000	7.64480E-004	...........
	107	108.9	1.05650E+000	1.05695E+000	7.59805E-004	...........
	108	109.908	1.05648E+000	1.05613E+000	7.62822E-004	...........
	109	110.917	1.05646E+000	1.05679E+000	7.66538E-004	...........
	110	111.925	1.05648E+000	1.05685E+000	7.59513E-004	...........
	111	112.933	1.05653E+000	1.05649E+000	7.67297E-004	...........
	112	113.942	1.05660E+000	1.05641E+000	7.58205E-004	...........
	113	114.95	1.05662E+000	1.05631E+000	7.59472E-004	...........
	114	115.958	1.05656E+000	1.05632E+000	7.62572E-004	...........
	115	116.967	1.05646E+000	1.05627E+000	7.63797E-004	...........
	116	117.975	1.05636E+000	1.05514E+000	7.61997E-004	...........
	117	118.983	1.05620E+000	1.05601E+000	7.57063E-004	...........
	118	119.992	1.05603E+000	1.05713E+000	7.64347E-004	...........
	119	121	1.05600E+000	1.05709E+000	7.53164E-004	...........
	120	122.008	1.05623E+000	1.05688E+000	7.47639E-004	...........
	121	123.017	1.05657E+000	1.05712E+000	7.50155E-004	...........
	122	124.025	1.05685E+000	1.05746E+000	7.58105E-004	...........
	123	125.033	1.05704E+000	1.05772E+000	7.58772E-004	...........
	124	126.042	1.05719E+000	1.05617E+000	7.59763E-004	...........
	125	127.05	1.05718E+000	1.05413E+000	7.50980E-004	...........
	126	128.058	1.05682E+000	1.05519E+000	7.57288E-004	...........
	127	129.067	1.05615E+000	1.05537E+000	7.56922E-004	...........
	128	130.075	1.05555E+000	1.05602E+000	7.61130E-004	...........
	129	131.083	1.05532E+000	1.05621E+000	7.65297E-004	...........
	130	132.092	1.05545E+000	1.05617E+000	7.65988E-004	...........
	131	133.1	1.05574E+000	1.05663E+000	7.48997E-004	...........
	132	134.108	1.05604E+000	1.05679E+000	7.59897E-004	...........
	133	135.117	1.05630E+000	1.05702E+000	7.58288E-004	...........
	134	136.125	1.05650E+000	1.05468E+000	7.65197E-004	...........
	135	137.133	1.05648E+000	1.05522E+000	7.61605E-004	...........
	136	138.142	1.05618E+000	1.05578E+000	7.61038E-004	...........
	137	139.15	1.05580E+000	1.05646E+000	7.68997E-004	...........
	138	140.158	1.05566E+000	1.05658E+000	7.67063E-004	...........
	139	141.167	1.05582E+000	1.05636E+000	7.68813E-004	...........
	140	142.175	1.05608E+000	1.05559E+000	7.60989E-004	...........
	141	143.183	1.05623E+000	1.05613E+000	7.65180E-004	...........
	142	144.192	1.05620E+000	1.05657E+000	7.72322E-004	...........
	143	145.2	1.05612E+000	1.05477E+000	7.70147E-004	...........
	144	146.208	1.05602E+000	1.05573E+000	7.73997E-004	...........
	145	147.217	1.05587E+000	1.05672E+000	7.75722E-004	...........
	146	148.225	1.05582E+000	1.05724E+000	7.80913E-004	...........
	147	149.233	1.05603E+000	1.05772E+000	7.76322E-004	...........
	148	150.242	1.05647E+000	1.05678E+000	7.63988E-004	...........
	149	151.25	1.05690E+000	1.05699E+000	7.65355E-004	...........
	150	152.258	1.05711E+000	1.05710E+000	7.68813E-004	...........
	151	153.267	1.05714E+000	1.05731E+000	7.56789E-004	...........
	152	154.275	1.05711E+000	1.05653E+000	7.59563E-004	...........
	153	155.283	1.05707E+000	1.05708E+000	7.63055E-004	...........
	154	156.292	1.05700E+000	1.05646E+000	7.66572E-004	...........
	155	157.3	1.05690E+000	1.05666E+000	7.68705E-004	...........
	156	158.308	1.05680E+000	1.05653E+000	7.70147E-004	...........
	157	159.317	1.05669E+000	1.05664E+000	7.64555E-004	...........
	158	160.325	1.05662E+000	1.05624E+000	7.67430E-004	...........
	159	161.333	1.05656E+000	1.05649E+000	7.66280E-004	...........
	160	162.342	1.05650E+000	1.05629E+000	7.61247E-004	...........
	161	163.35	1.05645E+000	1.05686E+000	7.57480E-004	...........
	162	164.358	1.05642E+000	1.05534E+000	7.58263E-004	...........
	163	165.367	1.05636E+000	1.05543E+000	7.61522E-004	...........
	164	166.375	1.05618E+000	1.05663E+000	7.61097E-004	...........
	165	167.383	1.05602E+000	1.05707E+000	7.57463E-004	...........
	166	168.392	1.05607E+000	1.05708E+000	7.54830E-004	...........
	167	169.4	1.05636E+000	1.05701E+000	7.55539E-004	...........
	168	170.408	1.05669E+000	1.05645E+000	7.66597E-004	...........
	169	171.417	1.05686E+000	1.05667E+000	7.65905E-004	...........
	170	172.425	1.05686E+000	1.05703E+000	7.64788E-004	...........
	171	173.433	1.05680E+000	1.05687E+000	7.63322E-004	...........
	172	174.442	1.05679E+000	1.05671E+000	7.59563E-004	...........
	173	175.45	1.05680E+000	1.05627E+000	7.68797E-004	...........
	174	176.458	1.05678E+000	1.05730E+000	7.59380E-004	...........
	175	177.467	1.05675E+000	1.05702E+000	7.58680E-004	...........
	176	178.475	1.05679E+000	1.05698E+000	7.64705E-004	...........
	177	179.483	1.05689E+000	1.05724E+000	7.69672E-004	...........
	178	180.492	1.05700E+000	1.05721E+000	7.68663E-004	...........
	179	181.5	1.05709E+000	1.05748E+000	7.64605E-004	...........
	180	182.508	1.05717E+000	1.05723E+000	7.60005E-004	...........
	181	183.517	1.05722E+000	1.05564E+000	7.56897E-004	...........
	182	184.525	1.05710E+000	1.05567E+000	7.62730E-004	...........
	183	185.533	1.05679E+000	1.05738E+000	7.65413E-004	...........
	184	186.542	1.05650E+000	1.05739E+000	7.64905E-004	...........
	185	187.55	1.05652E+000	1.05791E+000	7.70347E-004	...........
	186	188.558	1.05686E+000	1.05842E+000	7.59814E-004	...........
	187	189.567	1.05737E+000	1.06014E+000	7.64780E-004	...........
	188	190.575	1.05793E+000	1.05630E+000	7.70180E-004	...........
	189	191.583	1.05827E+000	1.05620E+000	7.76138E-004	...........
	190	192.592	1.05807E+000	1.05556E+000	7.67922E-004	...........
	191	193.6	1.05738E+000	1.05549E+000	7.63888E-004	...........
	192	194.608	1.05655E+000	1.05393E+000	7.65138E-004	...........
	193	195.617	1.05582E+000	1.05625E+000	7.69555E-004	...........
	194	196.625	1.05537E+000	1.05644E+000	7.68647E-004	...........
	195	197.633	1.05533E+000	1.05570E+000	7.63613E-004	...........
	196	198.642	1.05557E+000	1.05637E+000	7.74230E-004	...........
	197	199.65	1.05588E+000	1.05736E+000	7.69222E-004	...........
	198	200.658	1.05618E+000	1.05655E+000	7.70113E-004	...........
	199	201.667	1.05645E+000	1.05627E+000	7.70180E-004	...........
	200	202.675	1.05662E+000	1.05686E+000	7.66313E-004	...........
	201	203.683	1.05664E+000	1.05574E+000	7.64030E-004	...........
	202	204.692	1.05655E+000	1.05636E+000	7.71538E-004	...........
	203	205.7	1.05642E+000	1.05696E+000	7.63080E-004	...........
	204	206.708	1.05639E+000	1.05751E+000	7.66630E-004	...........
	205	207.717	1.05654E+000	1.05717E+000	7.66905E-004	...........
	206	208.725	1.05683E+000	1.05787E+000	7.71480E-004	...........
	207	209.733	1.05714E+000	1.05752E+000	7.67672E-004	...........
	208	210.742	1.05738E+000	1.05762E+000	7.73680E-004	...........
	209	211.75	1.05752E+000	1.05725E+000	7.63022E-004	...........
	210	212.758	1.05756E+000	1.05744E+000	7.67247E-004	...........
	211	213.767	1.05751E+000	1.05719E+000	7.59680E-004	...........
	212	214.775	1.05742E+000	1.05680E+000	7.66097E-004	...........
	213	215.783	1.05731E+000	1.05764E+000	7.77380E-004	...........
	214	216.792	1.05724E+000	1.05783E+000	7.70755E-004	...........
	215	217.8	1.05728E+000	1.05757E+000	7.66922E-004	...........
	216	218.808	1.05740E+000	1.05669E+000	7.64297E-004	...........
	217	219.817	1.05745E+000	1.05718E+000	7.70213E-004	...........
	218	220.825	1.05737E+000	1.05750E+000	7.70313E-004	...........
	219	221.833	1.05727E+000	1.05788E+000	7.67672E-004	...........
	220	222.842	1.05731E+000	1.05804E+000	7.64855E-004	...........
	221	223.85	1.05746E+000	1.05657E+000	7.66497E-004	...........
	222	224.858	1.05753E+000	1.05580E+000	7.67055E-004	...........
	223	225.867	1.05736E+000	1.05825E+000	7.69088E-004	...........
	224	226.875	1.05709E+000	1.05628E+000	7.74672E-004	...........
	225	227.883	1.05694E+000	1.05675E+000	7.70230E-004	...........
	226	228.892	1.05690E+000	1.05772E+000	7.74472E-004	...........
	227	229.9	1.05693E+000	1.05690E+000	7.68147E-004	...........
	228	230.908	1.05701E+000	1.05721E+000	7.65288E-004	...........
	229	231.917	1.05709E+000	1.05672E+000	7.71880E-004	...........
	230	232.925	1.05710E+000	1.05696E+000	7.64613E-004	...........
	231	233.933	1.05702E+000	1.05569E+000	7.70130E-004	...........
	232	234.942	1.05685E+000	1.05689E+000	7.61705E-004	...........
	233	235.95	1.05666E+000	1.05726E+000	7.62405E-004	...........
	234	236.958	1.05660E+000	1.05710E+000	7.66747E-004	...........
	235	237.967	1.05672E+000	1.05689E+000	7.66813E-004	...........
	236	238.975	1.05690E+000	1.05742E+000	7.70422E-004	...........
	237	239.983	1.05704E+000	1.05751E+000	7.67047E-004	...........
	238	240.992	1.05717E+000	1.05767E+000	7.64305E-004	...........
	239	242	1.05730E+000	1.05692E+000	7.58714E-004	...........
	240	243.008	1.05734E+000	1.05505E+000	7.75422E-004	...........
	241	244.017	1.05711E+000	1.05567E+000	7.75205E-004	...........
	242	245.025	1.05663E+000	1.05625E+000	7.74047E-004	...........
	243	246.033	1.05618E+000	1.05715E+000	7.66163E-004	...........
	244	247.042	1.05607E+000	1.05705E+000	7.66947E-004	...........
	245	248.05	1.05629E+000	1.05673E+000	7.64155E-004	...........
	246	249.058	1.05659E+000	1.05637E+000	7.62305E-004	...........
	247	250.067	1.05677E+000	1.05741E+000	7.64572E-004	...........
	248	251.075	1.05683E+000	1.05707E+000	7.62705E-004	...........
	249	252.083	1.05689E+000	1.05743E+000	7.69905E-004	...........
	250	253.092	1.05700E+000	1.05597E+000	7.74813E-004	...........
	251	254.1	1.05702E+000	1.05665E+000	7.71405E-004	...........
	252	255.108	1.05691E+000	1.05787E+000	7.75063E-004	...........
	253	256.117	1.05686E+000	1.05769E+000	7.72330E-004	...........
	254	257.125	1.05703E+000	1.05873E+000	7.66338E-004	...........
	255	258.133	1.05741E+000	1.05851E+000	7.60722E-004	...........
	256	259.142	1.05785E+000	1.05810E+000	7.65738E-004	...........
	257	260.15	1.05815E+000	1.05661E+000	7.74113E-004	...........
	258	261.158	1.05812E+000	1.05612E+000	7.76697E-004	...........
	259	262.167	1.05771E+000	1.05631E+000	7.72688E-004	...........
	260	263.175	1.05711E+000	1.05558E+000	7.63963E-004	...........
	261	264.183	1.05655E+000	1.05549E+000	7.73963E-004	...........
	262	265.192	1.05613E+000	1.05604E+000	7.81638E-004	...........
	263	266.2	1.05587E+000	1.05610E+000	7.80438E-004	...........
	264	267.208	1.05581E+000	1.05639E+000	7.78405E-004	...........
	265	268.217	1.05592E+000	1.05694E+000	7.79138E-004	...........
	266	269.225	1.05615E+000	1.05698E+000	7.69297E-004	...........
	267	270.233	1.05642E+000	1.05643E+000	7.71463E-004	...........
	268	271.242	1.05663E+000	1.05675E+000	7.72755E-004	...........
	269	272.25	1.05670E+000	1.05555E+000	7.73305E-004	...........
	270	273.258	1.05658E+000	1.05505E+000	7.79471E-004	...........
	271	274.267	1.05628E+000	1.05651E+000	7.68988E-004	...........
	272	275.275	1.05601E+000	1.05732E+000	7.72105E-004	...........
	273	276.283	1.05601E+000	1.05712E+000	7.67097E-004	...........
	274	277.292	1.05631E+000	1.05658E+000	7.66530E-004	...........
	275	278.3	1.05665E+000	1.05612E+000	7.75855E-004	...........
	276	279.308	1.05677E+000	1.05699E+000	7.63522E-004	...........
	277	280.317	1.05673E+000	1.05704E+000	7.62555E-004	...........
	278	281.325	1.05670E+000	1.05694E+000	7.66163E-004	...........
	279	282.333	1.05675E+000	1.05594E+000	7.68330E-004	...........
	280	283.342	1.05674E+000	1.05512E+000	7.63838E-004	...........
	281	284.35	1.05652E+000	1.05635E+000	7.74313E-004	...........
	282	285.358	1.05622E+000	1.05749E+000	7.66555E-004	...........
	283	286.367	1.05616E+000	1.05766E+000	7.70730E-004	...........
