EXPLAIN
TAG	CORPOT
TITLE	LABEL	Open Circuit Potential	Test &Identifier
DATE	LABEL	2019-10-16	Date
TIME	LABEL	23:16:22	Time
NOTES	NOTES	1	&Notes...
	
PSTAT	PSTAT	REF3000-13111	Potentiostat
TIMEOUT	QUANT	9.00000E+004	Total &Time (s)
SAMPLETIME	QUANT	1.00000E+000	Sa&mple Period (s)
STABILITY	QUANT	0.00000E+000	Sta&bility (mV/s)
PSTATMODEL	IQUANT	5	Pstat Model
PSTATSECTION	LABEL	REF3000-13111	Pstat Section
PSTATSERIALNO	LABEL	13111	Pstat Serial Number
CTRLMODE	IQUANT	1	Control Mode
IESTAB	IQUANT	2	I/E Stability
CASPEED	IQUANT	2	Control Amp Speed
CONVENTION	IQUANT	1	Current Convention
ICHRANGE	IQUANT	2	Ich Range
ICHRANGEMODE	TOGGLE	T	Ich Auto Range
ICHOFFSETENABLE	TOGGLE	F	Ich Offset Enable
ICHOFFSET	QUANT	0	Ich Offset (V)
ICHFILTER	IQUANT	3	Ich Filter
VCHRANGE	IQUANT	3	Vch Range
VCHRANGEMODE	TOGGLE	T	Vch Auto Range
VCHOFFSETENABLE	TOGGLE	F	Vch Offset Enable
VCHOFFSET	QUANT	0	Vch Offset (V)
VCHFILTER	IQUANT	3	Vch Filter
ACHRANGE	IQUANT	2	Ach Range
ACHOFFSETENABLE	TOGGLE	F	Ach Offset Enable
ACHOFFSET	QUANT	0	Ach Offset (V)
ACHFILTER	IQUANT	3	Ach Filter
IERANGELOWERLIMIT	IQUANT	2	I/E Range Lower Limit
IERANGEMODE	TOGGLE	T	I/E AutoRange
IERANGE	IQUANT	11	I/E Range
POSFEEDENABLE	TOGGLE	F	Positive Feedback IR Comp
POSFEEDRESISTANCE	QUANT	0	Positive Feedback Resistance (ohm)
ACHSELECT	IQUANT	0	Ach Select
CABLEID	IQUANT	14	Cable ID
DCCALDATE	LABEL	2019-10-1	DC Calibration Date
ACCALDATE	LABEL	2019-10-1	AC Calibration Date
THERMOSELECT	IQUANT	1	Thermo Select
FRAMEWORKVERSION	QUANT	6.33	Framework Version
INSTRUMENTVERSION	LABEL	3.50	Instrument Version
COMPLIANCEVOLTAGE	IQUANT	0	Compliance Voltage
CURVE	TABLE	1530
	Pt	T	Vf	Vm	Ach	Over
	#	s	V vs. Ref.	V	V	bits
	0	1.00833	1.04156E+000	1.04156E+000	6.42774E-004	...........
	1	2.01667	1.04157E+000	1.04174E+000	6.43482E-004	...........
	2	3.025	1.04159E+000	1.04200E+000	6.43332E-004	...........
	3	4.03333	1.04165E+000	1.04185E+000	6.44099E-004	...........
	4	5.04167	1.04175E+000	1.04213E+000	6.42607E-004	...........
	5	6.05	1.04185E+000	1.04198E+000	6.43615E-004	...........
	6	7.05833	1.04191E+000	1.04068E+000	6.43382E-004	...........
	7	8.06667	1.04182E+000	1.04011E+000	6.41732E-004	...........
	8	9.075	1.04153E+000	1.04169E+000	6.43340E-004	...........
	9	10.0833	1.04120E+000	1.04229E+000	6.43882E-004	...........
	10	11.0917	1.04114E+000	1.04180E+000	6.42315E-004	...........
	11	12.1	1.04138E+000	1.04199E+000	6.43299E-004	...........
	12	13.1083	1.04168E+000	1.04229E+000	6.42674E-004	...........
	13	14.1167	1.04191E+000	1.04200E+000	6.43724E-004	...........
	14	15.125	1.04202E+000	1.04153E+000	6.43899E-004	...........
	15	16.1333	1.04200E+000	1.04057E+000	6.43824E-004	...........
	16	17.1417	1.04180E+000	1.04101E+000	6.40865E-004	...........
	17	18.15	1.04149E+000	1.04168E+000	6.43340E-004	...........
	18	19.1583	1.04126E+000	1.04191E+000	6.43582E-004	...........
	19	20.1667	1.04127E+000	1.04185E+000	6.42182E-004	...........
	20	21.175	1.04146E+000	1.04210E+000	6.43482E-004	...........
	21	22.1833	1.04169E+000	1.04198E+000	6.43232E-004	...........
	22	23.1917	1.04187E+000	1.04205E+000	6.43832E-004	...........
	23	24.2	1.04198E+000	1.04226E+000	6.44132E-004	...........
	24	25.2083	1.04203E+000	1.04151E+000	6.41890E-004	...........
	25	26.2167	1.04201E+000	1.04094E+000	6.42357E-004	...........
	26	27.225	1.04187E+000	1.04180E+000	6.43807E-004	...........
	27	28.2333	1.04168E+000	1.04223E+000	6.43515E-004	...........
	28	29.2417	1.04161E+000	1.04190E+000	6.43332E-004	...........
	29	30.25	1.04171E+000	1.04239E+000	6.42449E-004	...........
	30	31.2583	1.04189E+000	1.04228E+000	6.43315E-004	...........
	31	32.2667	1.04207E+000	1.04257E+000	6.43265E-004	...........
	32	33.275	1.04223E+000	1.04289E+000	6.42357E-004	...........
	33	34.2833	1.04239E+000	1.04222E+000	6.44782E-004	...........
	34	35.2917	1.04247E+000	1.04079E+000	6.43899E-004	...........
	35	36.3	1.04235E+000	1.04163E+000	6.43957E-004	...........
	36	37.3083	1.04205E+000	1.04257E+000	6.41032E-004	...........
	37	38.3167	1.04182E+000	1.04222E+000	6.43782E-004	...........
	38	39.325	1.04184E+000	1.04232E+000	6.43890E-004	...........
	39	40.3333	1.04202E+000	1.04227E+000	6.43949E-004	...........
	40	41.3417	1.04218E+000	1.04225E+000	6.44107E-004	...........
	41	42.35	1.04227E+000	1.04233E+000	6.45565E-004	...........
	42	43.3583	1.04230E+000	1.04284E+000	6.43865E-004	...........
	43	44.3667	1.04236E+000	1.04270E+000	6.44390E-004	...........
	44	45.375	1.04244E+000	1.04131E+000	6.44032E-004	...........
	45	46.3833	1.04244E+000	1.04231E+000	6.44040E-004	...........
	46	47.3917	1.04231E+000	1.04203E+000	6.44407E-004	...........
	47	48.4	1.04216E+000	1.04226E+000	6.43474E-004	...........
	48	49.4083	1.04211E+000	1.04325E+000	6.44874E-004	...........
	49	50.4167	1.04224E+000	1.04373E+000	6.44765E-004	...........
	50	51.425	1.04257E+000	1.04385E+000	6.45007E-004	...........
	51	52.4333	1.04301E+000	1.04387E+000	6.44457E-004	...........
	52	53.4417	1.04341E+000	1.04299E+000	6.43299E-004	...........
	53	54.45	1.04358E+000	1.04227E+000	6.43315E-004	...........
	54	55.4583	1.04342E+000	1.04074E+000	6.41282E-004	...........
	55	56.4667	1.04294E+000	1.04206E+000	6.42149E-004	...........
	56	57.475	1.04236E+000	1.04302E+000	6.42240E-004	...........
	57	58.4833	1.04203E+000	1.04229E+000	6.43674E-004	...........
	58	59.4917	1.04206E+000	1.04215E+000	6.45465E-004	...........
	59	60.5	1.04222E+000	1.04225E+000	6.42882E-004	...........
	60	61.5083	1.04231E+000	1.04221E+000	6.41824E-004	...........
	61	62.5167	1.04230E+000	1.04225E+000	6.43482E-004	...........
	62	63.525	1.04226E+000	1.04204E+000	6.43799E-004	...........
	63	64.5333	1.04222E+000	1.04232E+000	6.42982E-004	...........
	64	65.5417	1.04217E+000	1.04099E+000	6.41690E-004	...........
	65	66.55	1.04203E+000	1.03973E+000	6.41249E-004	...........
	66	67.5583	1.04169E+000	1.04227E+000	6.42024E-004	...........
	67	68.5667	1.04133E+000	1.04181E+000	6.43690E-004	...........
	68	69.575	1.04123E+000	1.04251E+000	6.40974E-004	...........
	69	70.5833	1.04147E+000	1.04225E+000	6.44015E-004	...........
	70	71.5917	1.04183E+000	1.04211E+000	6.44199E-004	...........
	71	72.6	1.04209E+000	1.04217E+000	6.43582E-004	...........
	72	73.6083	1.04221E+000	1.04229E+000	6.42749E-004	...........
	73	74.6167	1.04225E+000	1.04308E+000	6.44390E-004	...........
	74	75.625	1.04230E+000	1.04155E+000	6.44957E-004	...........
	75	76.6333	1.04235E+000	1.04194E+000	6.44074E-004	...........
	76	77.6417	1.04230E+000	1.04246E+000	6.43107E-004	...........
	77	78.65	1.04219E+000	1.04222E+000	6.44915E-004	...........
	78	79.6583	1.04215E+000	1.04235E+000	6.42499E-004	...........
	79	80.6667	1.04219E+000	1.04203E+000	6.42940E-004	...........
	80	81.675	1.04223E+000	1.04232E+000	6.43357E-004	...........
	81	82.6833	1.04223E+000	1.04224E+000	6.44082E-004	...........
	82	83.6917	1.04223E+000	1.04233E+000	6.43957E-004	...........
	83	84.7	1.04224E+000	1.04233E+000	6.43032E-004	...........
	84	85.7083	1.04224E+000	1.04101E+000	6.41990E-004	...........
	85	86.7167	1.04213E+000	1.04041E+000	6.42249E-004	...........
	86	87.725	1.04184E+000	1.04228E+000	6.42699E-004	...........
	87	88.7333	1.04153E+000	1.04230E+000	6.41940E-004	...........
	88	89.7417	1.04149E+000	1.04230E+000	6.42749E-004	...........
	89	90.75	1.04172E+000	1.04223E+000	6.42515E-004	...........
	90	91.7583	1.04200E+000	1.04237E+000	6.41782E-004	...........
	91	92.7667	1.04220E+000	1.04254E+000	6.41674E-004	...........
	92	93.775	1.04232E+000	1.04293E+000	6.42849E-004	...........
	93	94.7833	1.04245E+000	1.04343E+000	6.43832E-004	...........
	94	95.792	1.04264E+000	1.04267E+000	6.45199E-004	...........
	95	96.8	1.04283E+000	1.04249E+000	6.41432E-004	...........
	96	97.808	1.04292E+000	1.04386E+000	6.44849E-004	...........
	97	98.817	1.04297E+000	1.04359E+000	6.44357E-004	...........
	98	99.825	1.04311E+000	1.04406E+000	6.41690E-004	...........
	99	100.833	1.04337E+000	1.04400E+000	6.42349E-004	...........
	100	101.842	1.04364E+000	1.04397E+000	6.42307E-004	...........
	101	102.85	1.04382E+000	1.04281E+000	6.42874E-004	...........
	102	103.858	1.04380E+000	1.04222E+000	6.44074E-004	...........
	103	104.867	1.04352E+000	1.04206E+000	6.43715E-004	...........
	104	105.875	1.04306E+000	1.04251E+000	6.39274E-004	...........
	105	106.883	1.04262E+000	1.04162E+000	6.42715E-004	...........
	106	107.892	1.04230E+000	1.04130E+000	6.41832E-004	...........
	107	108.9	1.04206E+000	1.04217E+000	6.43090E-004	...........
	108	109.908	1.04188E+000	1.04232E+000	6.41840E-004	...........
	109	110.917	1.04184E+000	1.04209E+000	6.42982E-004	...........
	110	111.925	1.04194E+000	1.04207E+000	6.42582E-004	...........
	111	112.933	1.04205E+000	1.04216E+000	6.43482E-004	...........
	112	113.942	1.04211E+000	1.04187E+000	6.43607E-004	...........
	113	114.95	1.04210E+000	1.04201E+000	6.43349E-004	...........
	114	115.958	1.04206E+000	1.04187E+000	6.42807E-004	...........
	115	116.967	1.04198E+000	1.04075E+000	6.42057E-004	...........
	116	117.975	1.04183E+000	1.04130E+000	6.41749E-004	...........
	117	118.983	1.04162E+000	1.04215E+000	6.42432E-004	...........
	118	119.992	1.04148E+000	1.04218E+000	6.43607E-004	...........
	119	121	1.04157E+000	1.04221E+000	6.43515E-004	...........
	120	122.008	1.04180E+000	1.04241E+000	6.42415E-004	...........
	121	123.017	1.04205E+000	1.04320E+000	6.43382E-004	...........
	122	124.025	1.04229E+000	1.04207E+000	6.44290E-004	...........
	123	125.033	1.04247E+000	1.04227E+000	6.44932E-004	...........
	124	126.042	1.04252E+000	1.04230E+000	6.42765E-004	...........
	125	127.05	1.04242E+000	1.04090E+000	6.39449E-004	...........
	126	128.058	1.04218E+000	1.04010E+000	6.39899E-004	...........
	127	129.067	1.04179E+000	1.04293E+000	6.41382E-004	...........
	128	130.075	1.04149E+000	1.04256E+000	6.40499E-004	...........
	129	131.083	1.04154E+000	1.04276E+000	6.41199E-004	...........
	130	132.092	1.04194E+000	1.04351E+000	6.43715E-004	...........
	131	133.1	1.04242E+000	1.04297E+000	6.42857E-004	...........
	132	134.108	1.04281E+000	1.04329E+000	6.43632E-004	...........
	133	135.117	1.04306E+000	1.04334E+000	6.44957E-004	...........
	134	136.125	1.04318E+000	1.04320E+000	6.44949E-004	...........
	135	137.133	1.04322E+000	1.04236E+000	6.41907E-004	...........
	136	138.142	1.04316E+000	1.04288E+000	6.42699E-004	...........
	137	139.15	1.04304E+000	1.04389E+000	6.44090E-004	...........
	138	140.158	1.04300E+000	1.04389E+000	6.43182E-004	...........
	139	141.167	1.04318E+000	1.04460E+000	6.43174E-004	...........
	140	142.175	1.04354E+000	1.04488E+000	6.41657E-004	...........
	141	143.183	1.04395E+000	1.04370E+000	6.43957E-004	...........
	142	144.192	1.04421E+000	1.04245E+000	6.41507E-004	...........
	143	145.2	1.04414E+000	1.04385E+000	6.43757E-004	...........
	144	146.208	1.04383E+000	1.04344E+000	6.43957E-004	...........
	145	147.217	1.04353E+000	1.04232E+000	6.43265E-004	...........
	146	148.225	1.04330E+000	1.04229E+000	6.42590E-004	...........
	147	149.233	1.04305E+000	1.04284E+000	6.43207E-004	...........
	148	150.242	1.04280E+000	1.04307E+000	6.44499E-004	...........
	149	151.25	1.04269E+000	1.04273E+000	6.42665E-004	...........
	150	152.258	1.04272E+000	1.04274E+000	6.42974E-004	...........
	151	153.267	1.04279E+000	1.04364E+000	6.43924E-004	...........
	152	154.275	1.04289E+000	1.04328E+000	6.44424E-004	...........
	153	155.283	1.04303E+000	1.04288E+000	6.42315E-004	...........
	154	156.292	1.04314E+000	1.04271E+000	6.41799E-004	...........
	155	157.3	1.04312E+000	1.04248E+000	6.41982E-004	...........
	156	158.308	1.04297E+000	1.04260E+000	6.42690E-004	...........
	157	159.317	1.04281E+000	1.04335E+000	6.43699E-004	...........
	158	160.325	1.04275E+000	1.04343E+000	6.45015E-004	...........
	159	161.333	1.04287E+000	1.04383E+000	6.43449E-004	...........
	160	162.342	1.04312E+000	1.04356E+000	6.44449E-004	...........
	161	163.35	1.04338E+000	1.04387E+000	6.44349E-004	...........
	162	164.358	1.04357E+000	1.04371E+000	6.45332E-004	...........
	163	165.367	1.04369E+000	1.04374E+000	6.43232E-004	...........
	164	166.375	1.04374E+000	1.04353E+000	6.43715E-004	...........
	165	167.383	1.04371E+000	1.04261E+000	6.41674E-004	...........
	166	168.392	1.04353E+000	1.04081E+000	6.42965E-004	...........
	167	169.4	1.04308E+000	1.04038E+000	6.42374E-004	...........
	168	170.408	1.04235E+000	1.04082E+000	6.43332E-004	...........
	169	171.417	1.04155E+000	1.04018E+000	6.42724E-004	...........
	170	172.425	1.04095E+000	1.04064E+000	6.42832E-004	...........
	171	173.433	1.04061E+000	1.04014E+000	6.41640E-004	...........
	172	174.442	1.04044E+000	1.03993E+000	6.43807E-004	...........
	173	175.45	1.04033E+000	1.04022E+000	6.43982E-004	...........
	174	176.458	1.04023E+000	1.04033E+000	6.43782E-004	...........
	175	177.467	1.04021E+000	1.04211E+000	6.44082E-004	...........
	176	178.475	1.04041E+000	1.04208E+000	6.44632E-004	...........
	177	179.483	1.04089E+000	1.04405E+000	6.43624E-004	...........
	178	180.492	1.04161E+000	1.04373E+000	6.45124E-004	...........
	179	181.5	1.04243E+000	1.04391E+000	6.43224E-004	...........
	180	182.508	1.04314E+000	1.04386E+000	6.44240E-004	...........
	181	183.517	1.04361E+000	1.04388E+000	6.42807E-004	...........
	182	184.525	1.04382E+000	1.04380E+000	6.44390E-004	...........
	183	185.533	1.04388E+000	1.04388E+000	6.44757E-004	...........
	184	186.542	1.04387E+000	1.04327E+000	6.45990E-004	...........
	185	187.55	1.04380E+000	1.04340E+000	6.44782E-004	...........
	186	188.558	1.04370E+000	1.04455E+000	6.44190E-004	...........
	187	189.567	1.04368E+000	1.04480E+000	6.45424E-004	...........
	188	190.575	1.04384E+000	1.04343E+000	6.43782E-004	...........
	189	191.583	1.04402E+000	1.04259E+000	6.44365E-004	...........
	190	192.592	1.04395E+000	1.04285E+000	6.43532E-004	...........
	191	193.6	1.04361E+000	1.04278E+000	6.41932E-004	...........
	192	194.608	1.04321E+000	1.04313E+000	6.43640E-004	...........
	193	195.617	1.04298E+000	1.04355E+000	6.43424E-004	...........
	194	196.625	1.04296E+000	1.04327E+000	6.42657E-004	...........
	195	197.633	1.04309E+000	1.04296E+000	6.42474E-004	...........
	196	198.642	1.04321E+000	1.04393E+000	6.41640E-004	...........
	197	199.65	1.04330E+000	1.04390E+000	6.42457E-004	...........
	198	200.658	1.04344E+000	1.04390E+000	6.42182E-004	...........
	199	201.667	1.04362E+000	1.04384E+000	6.43399E-004	...........
	200	202.675	1.04377E+000	1.04403E+000	6.40015E-004	...........
	201	203.683	1.04387E+000	1.04413E+000	6.42140E-004	...........
	202	204.692	1.04394E+000	1.04403E+000	6.42024E-004	...........
	203	205.7	1.04400E+000	1.04404E+000	6.42199E-004	...........
	204	206.708	1.04405E+000	1.04465E+000	6.43507E-004	...........
	205	207.717	1.04410E+000	1.04370E+000	6.45240E-004	...........
	206	208.725	1.04415E+000	1.04403E+000	6.43057E-004	...........
	207	209.733	1.04414E+000	1.04399E+000	6.42915E-004	...........
	208	210.742	1.04407E+000	1.04390E+000	6.44174E-004	...........
	209	211.75	1.04402E+000	1.04456E+000	6.43565E-004	...........
	210	212.758	1.04403E+000	1.04419E+000	6.42049E-004	...........
	211	213.767	1.04412E+000	1.04476E+000	6.45115E-004	...........
	212	214.775	1.04425E+000	1.04396E+000	6.43115E-004	...........
	213	215.783	1.04433E+000	1.04417E+000	6.41799E-004	...........
	214	216.792	1.04432E+000	1.04384E+000	6.43707E-004	...........
	215	217.8	1.04421E+000	1.04322E+000	6.44240E-004	...........
	216	218.808	1.04397E+000	1.04111E+000	6.43349E-004	...........
	217	219.817	1.04356E+000	1.04376E+000	6.44015E-004	...........
	218	220.825	1.04312E+000	1.04471E+000	6.43074E-004	...........
	219	221.833	1.04304E+000	1.04474E+000	6.43074E-004	...........
	220	222.842	1.04342E+000	1.04443E+000	6.40399E-004	...........
	221	223.85	1.04396E+000	1.04423E+000	6.41765E-004	...........
	222	224.858	1.04434E+000	1.04492E+000	6.44590E-004	...........
	223	225.867	1.04451E+000	1.04522E+000	6.43815E-004	...........
	224	226.875	1.04464E+000	1.04522E+000	6.44049E-004	...........
	225	227.883	1.04482E+000	1.04518E+000	6.43607E-004	...........
	226	228.892	1.04500E+000	1.04466E+000	6.42290E-004	...........
	227	229.9	1.04505E+000	1.04353E+000	6.44099E-004	...........
	228	230.908	1.04488E+000	1.04360E+000	6.44699E-004	...........
	229	231.917	1.04450E+000	1.04365E+000	6.45799E-004	...........
	230	232.925	1.04409E+000	1.04388E+000	6.45265E-004	...........
	231	233.933	1.04381E+000	1.04347E+000	6.45124E-004	...........
	232	234.942	1.04370E+000	1.04387E+000	6.45049E-004	...........
	233	235.95	1.04368E+000	1.04389E+000	6.43665E-004	...........
	234	236.958	1.04371E+000	1.04411E+000	6.41790E-004	...........
	235	237.967	1.04380E+000	1.04427E+000	6.40107E-004	...........
	236	238.975	1.04390E+000	1.04284E+000	6.41982E-004	...........
	237	239.983	1.04390E+000	1.04336E+000	6.44049E-004	...........
	238	240.992	1.04376E+000	1.04384E+000	6.43432E-004	...........
	239	242	1.04359E+000	1.04382E+000	6.43140E-004	...........
	240	243.008	1.04354E+000	1.04343E+000	6.43174E-004	...........
	241	244.017	1.04359E+000	1.04415E+000	6.41099E-004	...........
	242	245.025	1.04368E+000	1.04393E+000	6.41749E-004	...........
	243	246.033	1.04377E+000	1.04400E+000	6.40449E-004	...........
	244	247.042	1.04386E+000	1.04376E+000	6.44107E-004	...........
	245	248.05	1.04391E+000	1.04382E+000	6.42490E-004	...........
	246	249.058	1.04388E+000	1.04263E+000	6.41507E-004	...........
	247	250.067	1.04374E+000	1.04315E+000	6.42615E-004	...........
	248	251.075	1.04351E+000	1.04407E+000	6.42199E-004	...........
	249	252.083	1.04338E+000	1.04444E+000	6.41782E-004	...........
	250	253.092	1.04349E+000	1.04422E+000	6.40824E-004	...........
	251	254.1	1.04378E+000	1.04428E+000	6.40482E-004	...........
	252	255.108	1.04405E+000	1.04390E+000	6.41590E-004	...........
	253	256.117	1.04417E+000	1.04390E+000	6.42924E-004	...........
	254	257.125	1.04416E+000	1.04413E+000	6.40115E-004	...........
	255	258.133	1.04408E+000	1.04368E+000	6.41932E-004	...........
	256	259.142	1.04399E+000	1.04375E+000	6.42982E-004	...........
	257	260.15	1.04390E+000	1.04323E+000	6.43274E-004	...........
	258	261.158	1.04378E+000	1.04325E+000	6.43049E-004	...........
	259	262.167	1.04361E+000	1.04363E+000	6.44249E-004	...........
	260	263.175	1.04350E+000	1.04442E+000	6.40099E-004	...........
	261	264.183	1.04354E+000	1.04402E+000	6.41415E-004	...........
	262	265.192	1.04373E+000	1.04480E+000	6.42965E-004	...........
	263	266.2	1.04401E+000	1.04467E+000	6.41782E-004	...........
	264	267.208	1.04428E+000	1.04465E+000	6.42965E-004	...........
	265	268.217	1.04449E+000	1.04439E+000	6.41049E-004	...........
	266	269.225	1.04459E+000	1.04494E+000	6.44399E-004	...........
	267	270.233	1.04461E+000	1.04343E+000	6.44357E-004	...........
	268	271.242	1.04452E+000	1.04382E+000	6.43374E-004	...........
	269	272.25	1.04434E+000	1.04532E+000	6.44799E-004	...........
	270	273.258	1.04424E+000	1.04523E+000	6.42924E-004	...........
	271	274.267	1.04439E+000	1.04541E+000	6.44757E-004	...........
	272	275.275	1.04473E+000	1.04541E+000	6.44190E-004	...........
	273	276.283	1.04507E+000	1.04588E+000	6.40632E-004	...........
	274	277.292	1.04535E+000	1.04612E+000	6.42765E-004	...........
	275	278.3	1.04557E+000	1.04598E+000	6.40515E-004	...........
	276	279.308	1.04581E+000	1.04790E+000	6.41840E-004	...........
	277	280.317	1.04608E+000	1.04434E+000	6.40149E-004	...........
	278	281.325	1.04619E+000	1.04309E+000	6.42949E-004	...........
	279	282.333	1.04583E+000	1.04328E+000	6.44324E-004	...........
	280	283.342	1.04503E+000	1.04424E+000	6.41265E-004	...........
	281	284.35	1.04426E+000	1.04496E+000	6.42674E-004	...........
	282	285.358	1.04396E+000	1.04507E+000	6.43690E-004	...........
	283	286.367	1.04414E+000	1.04457E+000	6.41857E-004	...........
