EXPLAIN
TAG	CORPOT
TITLE	LABEL	Open Circuit Potential	Test &Identifier
DATE	LABEL	2019-10-16	Date
TIME	LABEL	18:23:46	Time
NOTES	NOTES	1	&Notes...
	
PSTAT	PSTAT	REF3000-13111	Potentiostat
TIMEOUT	QUANT	9.00000E+004	Total &Time (s)
SAMPLETIME	QUANT	1.00000E+000	Sa&mple Period (s)
STABILITY	QUANT	0.00000E+000	Sta&bility (mV/s)
PSTATMODEL	IQUANT	5	Pstat Model
PSTATSECTION	LABEL	REF3000-13111	Pstat Section
PSTATSERIALNO	LABEL	13111	Pstat Serial Number
CTRLMODE	IQUANT	1	Control Mode
IESTAB	IQUANT	2	I/E Stability
CASPEED	IQUANT	2	Control Amp Speed
CONVENTION	IQUANT	1	Current Convention
ICHRANGE	IQUANT	2	Ich Range
ICHRANGEMODE	TOGGLE	T	Ich Auto Range
ICHOFFSETENABLE	TOGGLE	F	Ich Offset Enable
ICHOFFSET	QUANT	0	Ich Offset (V)
ICHFILTER	IQUANT	3	Ich Filter
VCHRANGE	IQUANT	3	Vch Range
VCHRANGEMODE	TOGGLE	T	Vch Auto Range
VCHOFFSETENABLE	TOGGLE	F	Vch Offset Enable
VCHOFFSET	QUANT	0	Vch Offset (V)
VCHFILTER	IQUANT	3	Vch Filter
ACHRANGE	IQUANT	2	Ach Range
ACHOFFSETENABLE	TOGGLE	F	Ach Offset Enable
ACHOFFSET	QUANT	0	Ach Offset (V)
ACHFILTER	IQUANT	3	Ach Filter
IERANGELOWERLIMIT	IQUANT	2	I/E Range Lower Limit
IERANGEMODE	TOGGLE	T	I/E AutoRange
IERANGE	IQUANT	11	I/E Range
POSFEEDENABLE	TOGGLE	F	Positive Feedback IR Comp
POSFEEDRESISTANCE	QUANT	0	Positive Feedback Resistance (ohm)
ACHSELECT	IQUANT	0	Ach Select
CABLEID	IQUANT	14	Cable ID
DCCALDATE	LABEL	2019-10-1	DC Calibration Date
ACCALDATE	LABEL	2019-10-1	AC Calibration Date
THERMOSELECT	IQUANT	1	Thermo Select
FRAMEWORKVERSION	QUANT	6.33	Framework Version
INSTRUMENTVERSION	LABEL	3.50	Instrument Version
COMPLIANCEVOLTAGE	IQUANT	0	Compliance Voltage
CURVE	TABLE	890
	Pt	T	Vf	Vm	Ach	Over
	#	s	V vs. Ref.	V	V	bits
	0	1.00833	1.03502E+000	1.03502E+000	6.61073E-004	...........
	1	2.01667	1.03504E+000	1.03611E+000	6.48298E-004	...........
	2	3.025	1.03516E+000	1.03647E+000	6.56232E-004	...........
	3	4.03333	1.03541E+000	1.03559E+000	6.51582E-004	...........
	4	5.04167	1.03572E+000	1.03630E+000	6.55998E-004	...........
	5	6.05	1.03596E+000	1.03697E+000	6.57982E-004	...........
	6	7.05833	1.03615E+000	1.03703E+000	6.56040E-004	...........
	7	8.06667	1.03640E+000	1.03726E+000	6.55015E-004	...........
	8	9.075	1.03673E+000	1.03879E+000	6.57015E-004	...........
	9	10.0833	1.03709E+000	1.03639E+000	6.53482E-004	...........
	10	11.0917	1.03736E+000	1.03563E+000	6.59890E-004	...........
	11	12.1	1.03728E+000	1.03610E+000	6.52673E-004	...........
	12	13.1083	1.03689E+000	1.03740E+000	6.54515E-004	...........
	13	14.1167	1.03656E+000	1.03707E+000	6.49873E-004	...........
	14	15.125	1.03656E+000	1.03772E+000	6.56757E-004	...........
	15	16.1333	1.03677E+000	1.03471E+000	6.55315E-004	...........
	16	17.1417	1.03686E+000	1.03737E+000	6.56457E-004	...........
	17	18.15	1.03674E+000	1.03695E+000	6.54140E-004	...........
	18	19.1583	1.03663E+000	1.03711E+000	6.58507E-004	...........
	19	20.1667	1.03669E+000	1.03680E+000	6.61757E-004	...........
	20	21.175	1.03683E+000	1.03690E+000	6.58165E-004	...........
	21	22.1833	1.03690E+000	1.03642E+000	6.56465E-004	...........
	22	23.1917	1.03690E+000	1.03763E+000	6.56815E-004	...........
	23	24.2	1.03690E+000	1.03776E+000	6.60215E-004	...........
	24	25.2083	1.03704E+000	1.03796E+000	6.55748E-004	...........
	25	26.2167	1.03730E+000	1.03764E+000	6.56048E-004	...........
	26	27.225	1.03756E+000	1.03744E+000	6.62232E-004	...........
	27	28.2333	1.03768E+000	1.03727E+000	6.57898E-004	...........
	28	29.2417	1.03765E+000	1.03806E+000	6.54873E-004	...........
	29	30.25	1.03758E+000	1.03660E+000	6.48715E-004	...........
	30	31.2583	1.03750E+000	1.03736E+000	6.52340E-004	...........
	31	32.2667	1.03740E+000	1.03761E+000	6.52707E-004	...........
	32	33.275	1.03733E+000	1.03765E+000	6.53973E-004	...........
	33	34.2833	1.03737E+000	1.03840E+000	6.60448E-004	...........
	34	35.2917	1.03754E+000	1.03770E+000	6.55965E-004	...........
	35	36.3	1.03772E+000	1.03711E+000	6.54582E-004	...........
	36	37.3083	1.03777E+000	1.03654E+000	6.55265E-004	...........
	37	38.3167	1.03758E+000	1.03636E+000	6.54823E-004	...........
	38	39.325	1.03722E+000	1.03680E+000	6.58257E-004	...........
	39	40.3333	1.03689E+000	1.03762E+000	6.55957E-004	...........
	40	41.3417	1.03679E+000	1.03743E+000	6.59990E-004	...........
	41	42.35	1.03694E+000	1.03772E+000	6.55307E-004	...........
	42	43.3583	1.03719E+000	1.03734E+000	6.53590E-004	...........
	43	44.3667	1.03741E+000	1.03835E+000	6.59957E-004	...........
	44	45.375	1.03759E+000	1.03839E+000	6.57890E-004	...........
	45	46.3833	1.03780E+000	1.03861E+000	6.67065E-004	...........
	46	47.3917	1.03807E+000	1.03895E+000	6.58807E-004	...........
	47	48.4	1.03835E+000	1.03874E+000	6.59332E-004	...........
	48	49.4083	1.03852E+000	1.03614E+000	6.49315E-004	...........
	49	50.4167	1.03843E+000	1.03736E+000	6.54307E-004	...........
	50	51.425	1.03802E+000	1.03674E+000	6.53965E-004	...........
	51	52.4333	1.03753E+000	1.03785E+000	6.54140E-004	...........
	52	53.4417	1.03725E+000	1.03821E+000	6.53315E-004	...........
	53	54.45	1.03730E+000	1.03805E+000	6.56157E-004	...........
	54	55.4583	1.03758E+000	1.03849E+000	6.61757E-004	...........
	55	56.4667	1.03787E+000	1.03712E+000	6.53690E-004	...........
	56	57.475	1.03802E+000	1.03851E+000	6.55932E-004	...........
	57	58.4833	1.03802E+000	1.03799E+000	6.54123E-004	...........
	58	59.4917	1.03800E+000	1.03789E+000	6.55415E-004	...........
	59	60.5	1.03802E+000	1.03871E+000	6.60323E-004	...........
	60	61.5083	1.03809E+000	1.03861E+000	6.60123E-004	...........
	61	62.5167	1.03822E+000	1.03850E+000	6.57057E-004	...........
	62	63.525	1.03838E+000	1.03822E+000	6.51640E-004	...........
	63	64.5333	1.03847E+000	1.03859E+000	6.59498E-004	...........
	64	65.5417	1.03847E+000	1.03830E+000	6.55373E-004	...........
	65	66.55	1.03844E+000	1.03797E+000	6.52157E-004	...........
	66	67.5583	1.03836E+000	1.03756E+000	6.51865E-004	...........
	67	68.5667	1.03819E+000	1.03664E+000	6.55448E-004	...........
	68	69.575	1.03790E+000	1.03776E+000	6.57382E-004	...........
	69	70.5833	1.03761E+000	1.03843E+000	6.56490E-004	...........
	70	71.5917	1.03753E+000	1.03854E+000	6.57623E-004	...........
	71	72.6	1.03773E+000	1.03870E+000	6.55615E-004	...........
	72	73.6083	1.03806E+000	1.03767E+000	6.49090E-004	...........
	73	74.6167	1.03827E+000	1.03800E+000	6.56932E-004	...........
	74	75.625	1.03830E+000	1.03910E+000	6.62590E-004	...........
	75	76.6333	1.03824E+000	1.03698E+000	6.56007E-004	...........
	76	77.6417	1.03818E+000	1.03777E+000	6.46873E-004	...........
	77	78.65	1.03805E+000	1.03786E+000	6.59840E-004	...........
	78	79.6583	1.03790E+000	1.03855E+000	6.52948E-004	...........
	79	80.6667	1.03783E+000	1.03664E+000	6.55873E-004	...........
	80	81.675	1.03782E+000	1.03831E+000	6.55765E-004	...........
	81	82.6833	1.03781E+000	1.03901E+000	6.53298E-004	...........
	82	83.6917	1.03790E+000	1.03932E+000	6.58815E-004	...........
	83	84.7	1.03821E+000	1.03873E+000	6.57265E-004	...........
	84	85.7083	1.03861E+000	1.03969E+000	6.58882E-004	...........
	85	86.7167	1.03894E+000	1.04005E+000	6.58123E-004	...........
	86	87.725	1.03920E+000	1.03799E+000	6.59965E-004	...........
	87	88.7333	1.03929E+000	1.03777E+000	6.59523E-004	...........
	88	89.7417	1.03909E+000	1.03883E+000	6.63165E-004	...........
	89	90.75	1.03874E+000	1.03841E+000	6.60990E-004	...........
	90	91.7583	1.03849E+000	1.03867E+000	6.64848E-004	...........
	91	92.7667	1.03845E+000	1.03918E+000	6.62873E-004	...........
	92	93.775	1.03856E+000	1.03959E+000	6.59107E-004	...........
	93	94.7833	1.03881E+000	1.04046E+000	6.57207E-004	...........
	94	95.792	1.03917E+000	1.03916E+000	6.53640E-004	...........
	95	96.8	1.03949E+000	1.03949E+000	6.57382E-004	...........
	96	97.808	1.03963E+000	1.03886E+000	6.60515E-004	...........
	97	98.817	1.03955E+000	1.03872E+000	6.58698E-004	...........
	98	99.825	1.03932E+000	1.03873E+000	6.61665E-004	...........
	99	100.833	1.03908E+000	1.03965E+000	6.62240E-004	...........
	100	101.842	1.03899E+000	1.03987E+000	6.55173E-004	...........
	101	102.85	1.03910E+000	1.03950E+000	6.59548E-004	...........
	102	103.858	1.03932E+000	1.03931E+000	6.58707E-004	...........
	103	104.867	1.03950E+000	1.04010E+000	6.63315E-004	...........
	104	105.875	1.03957E+000	1.03849E+000	6.58465E-004	...........
	105	106.883	1.03952E+000	1.03894E+000	6.59923E-004	...........
	106	107.892	1.03935E+000	1.03831E+000	6.55582E-004	...........
	107	108.9	1.03908E+000	1.03868E+000	6.58115E-004	...........
	108	109.908	1.03885E+000	1.04025E+000	6.60790E-004	...........
	109	110.917	1.03882E+000	1.03828E+000	6.62840E-004	...........
	110	111.925	1.03894E+000	1.03939E+000	6.62990E-004	...........
	111	112.933	1.03906E+000	1.03926E+000	6.60082E-004	...........
	112	113.942	1.03914E+000	1.03994E+000	6.63190E-004	...........
	113	114.95	1.03927E+000	1.04088E+000	6.61515E-004	...........
	114	115.958	1.03955E+000	1.04047E+000	6.56065E-004	...........
	115	116.967	1.03993E+000	1.04047E+000	6.54757E-004	...........
	116	117.975	1.04027E+000	1.04035E+000	6.57173E-004	...........
	117	118.983	1.04044E+000	1.04050E+000	6.61548E-004	...........
	118	119.992	1.04047E+000	1.03961E+000	6.59507E-004	...........
	119	121	1.04037E+000	1.03967E+000	6.57090E-004	...........
	120	122.008	1.04019E+000	1.04014E+000	6.67057E-004	...........
	121	123.017	1.04000E+000	1.03970E+000	6.59140E-004	...........
	122	124.025	1.03990E+000	1.04010E+000	6.60382E-004	...........
	123	125.033	1.03988E+000	1.04031E+000	6.54057E-004	...........
	124	126.042	1.03994E+000	1.04006E+000	6.54932E-004	...........
	125	127.05	1.04005E+000	1.04113E+000	6.58273E-004	...........
	126	128.058	1.04019E+000	1.03958E+000	6.58123E-004	...........
	127	129.067	1.04030E+000	1.04031E+000	6.58540E-004	...........
	128	130.075	1.04030E+000	1.03974E+000	6.57848E-004	...........
	129	131.083	1.04020E+000	1.03986E+000	6.60190E-004	...........
	130	132.092	1.04007E+000	1.04044E+000	6.59398E-004	...........
	131	133.1	1.04001E+000	1.04018E+000	6.60023E-004	...........
	132	134.108	1.04005E+000	1.04073E+000	6.60348E-004	...........
	133	135.117	1.04015E+000	1.03853E+000	6.59473E-004	...........
	134	136.125	1.04014E+000	1.04065E+000	6.57515E-004	...........
	135	137.133	1.04004E+000	1.04091E+000	6.55532E-004	...........
	136	138.142	1.04004E+000	1.04080E+000	6.56040E-004	...........
	137	139.15	1.04027E+000	1.04170E+000	6.58598E-004	...........
	138	140.158	1.04061E+000	1.04062E+000	6.56090E-004	...........
	139	141.167	1.04090E+000	1.04134E+000	6.54465E-004	...........
	140	142.175	1.04107E+000	1.04119E+000	6.58165E-004	...........
	141	143.183	1.04114E+000	1.04155E+000	6.56257E-004	...........
	142	144.192	1.04121E+000	1.04170E+000	6.61107E-004	...........
	143	145.2	1.04132E+000	1.04144E+000	6.57632E-004	...........
	144	146.208	1.04143E+000	1.04129E+000	6.56807E-004	...........
	145	147.217	1.04147E+000	1.04074E+000	6.54715E-004	...........
	146	148.225	1.04138E+000	1.04058E+000	6.58257E-004	...........
	147	149.233	1.04118E+000	1.04073E+000	6.55423E-004	...........
	148	150.242	1.04093E+000	1.03926E+000	6.53698E-004	...........
	149	151.25	1.04063E+000	1.03988E+000	6.53865E-004	...........
	150	152.258	1.04025E+000	1.03794E+000	6.53132E-004	...........
	151	153.267	1.03983E+000	1.04050E+000	6.57773E-004	...........
	152	154.275	1.03951E+000	1.04042E+000	6.60857E-004	...........
	153	155.283	1.03949E+000	1.04044E+000	6.59207E-004	...........
	154	156.292	1.03978E+000	1.04075E+000	6.55615E-004	...........
	155	157.3	1.04016E+000	1.04132E+000	6.59623E-004	...........
	156	158.308	1.04050E+000	1.04096E+000	6.57557E-004	...........
	157	159.317	1.04076E+000	1.04004E+000	6.60282E-004	...........
	158	160.325	1.04085E+000	1.04081E+000	6.55615E-004	...........
	159	161.333	1.04078E+000	1.04025E+000	6.63015E-004	...........
	160	162.342	1.04066E+000	1.04176E+000	6.59215E-004	...........
	161	163.35	1.04061E+000	1.03853E+000	6.58090E-004	...........
	162	164.358	1.04059E+000	1.04247E+000	6.57415E-004	...........
	163	165.367	1.04058E+000	1.04088E+000	6.56148E-004	...........
	164	166.375	1.04069E+000	1.04099E+000	6.50923E-004	...........
	165	167.383	1.04089E+000	1.04121E+000	6.51148E-004	...........
	166	168.392	1.04103E+000	1.04047E+000	6.55715E-004	...........
	167	169.4	1.04103E+000	1.04040E+000	6.55332E-004	...........
	168	170.408	1.04090E+000	1.04028E+000	6.60690E-004	...........
	169	171.417	1.04071E+000	1.04076E+000	6.60090E-004	...........
	170	172.425	1.04057E+000	1.04159E+000	6.56765E-004	...........
	171	173.433	1.04058E+000	1.03918E+000	6.56323E-004	...........
	172	174.442	1.04063E+000	1.04128E+000	6.59565E-004	...........
	173	175.45	1.04064E+000	1.04200E+000	6.61332E-004	...........
	174	176.458	1.04072E+000	1.04067E+000	6.56423E-004	...........
	175	177.467	1.04095E+000	1.04258E+000	6.54582E-004	...........
	176	178.475	1.04119E+000	1.03860E+000	6.62548E-004	...........
	177	179.483	1.04122E+000	1.04175E+000	6.63223E-004	...........
	178	180.492	1.04105E+000	1.04175E+000	6.64698E-004	...........
	179	181.5	1.04097E+000	1.04263E+000	6.57457E-004	...........
	180	182.508	1.04119E+000	1.04116E+000	6.62698E-004	...........
	181	183.517	1.04156E+000	1.04280E+000	6.63873E-004	...........
	182	184.525	1.04182E+000	1.04046E+000	6.62948E-004	...........
	183	185.533	1.04184E+000	1.04016E+000	6.58990E-004	...........
	184	186.542	1.04156E+000	1.04043E+000	6.58315E-004	...........
	185	187.55	1.04111E+000	1.04075E+000	6.61840E-004	...........
	186	188.558	1.04073E+000	1.04118E+000	6.58532E-004	...........
	187	189.567	1.04063E+000	1.04158E+000	6.60765E-004	...........
	188	190.575	1.04081E+000	1.04270E+000	6.57357E-004	...........
	189	191.583	1.04114E+000	1.03933E+000	6.62657E-004	...........
	190	192.592	1.04137E+000	1.04243E+000	6.66857E-004	...........
	191	193.6	1.04137E+000	1.03994E+000	6.61240E-004	...........
	192	194.608	1.04122E+000	1.04135E+000	6.60823E-004	...........
	193	195.617	1.04109E+000	1.04204E+000	6.62607E-004	...........
	194	196.625	1.04110E+000	1.04181E+000	6.60415E-004	...........
	195	197.633	1.04131E+000	1.04254E+000	6.60057E-004	...........
	196	198.642	1.04166E+000	1.04361E+000	6.62382E-004	...........
	197	199.65	1.04203E+000	1.03973E+000	6.52715E-004	...........
	198	200.658	1.04220E+000	1.04181E+000	6.63173E-004	...........
	199	201.667	1.04206E+000	1.04345E+000	6.60232E-004	...........
	200	202.675	1.04187E+000	1.04063E+000	6.60782E-004	...........
	201	203.683	1.04182E+000	1.04031E+000	6.60707E-004	...........
	202	204.692	1.04166E+000	1.04045E+000	6.57223E-004	...........
	203	205.7	1.04131E+000	1.04221E+000	6.59773E-004	...........
	204	206.708	1.04100E+000	1.03955E+000	6.53798E-004	...........
	205	207.717	1.04086E+000	1.04032E+000	6.54198E-004	...........
	206	208.725	1.04074E+000	1.04094E+000	6.56807E-004	...........
	207	209.733	1.04061E+000	1.04145E+000	6.58848E-004	...........
	208	210.742	1.04060E+000	1.03937E+000	6.58857E-004	...........
	209	211.75	1.04067E+000	1.04233E+000	6.59848E-004	...........
	210	212.758	1.04077E+000	1.04177E+000	6.61782E-004	...........
	211	213.767	1.04099E+000	1.04216E+000	6.62340E-004	...........
	212	214.775	1.04137E+000	1.04233E+000	6.64423E-004	...........
	213	215.783	1.04176E+000	1.04256E+000	6.56982E-004	...........
	214	216.792	1.04206E+000	1.04211E+000	6.60815E-004	...........
	215	217.8	1.04225E+000	1.04203E+000	6.58648E-004	...........
	216	218.808	1.04228E+000	1.04186E+000	6.63832E-004	...........
	217	219.817	1.04219E+000	1.04128E+000	6.58082E-004	...........
	218	220.825	1.04200E+000	1.04072E+000	6.58740E-004	...........
	219	221.833	1.04173E+000	1.04241E+000	6.61048E-004	...........
	220	222.842	1.04153E+000	1.04142E+000	6.62448E-004	...........
	221	223.85	1.04150E+000	1.04206E+000	6.65298E-004	...........
	222	224.858	1.04160E+000	1.04165E+000	6.61832E-004	...........
	223	225.867	1.04173E+000	1.04251E+000	6.58157E-004	...........
	224	226.875	1.04185E+000	1.04198E+000	6.58340E-004	...........
	225	227.883	1.04197E+000	1.04192E+000	6.61440E-004	...........
	226	228.892	1.04204E+000	1.04169E+000	6.58373E-004	...........
	227	229.9	1.04200E+000	1.04070E+000	6.57632E-004	...........
	228	230.908	1.04182E+000	1.04167E+000	6.64307E-004	...........
	229	231.917	1.04159E+000	1.04170E+000	6.63923E-004	...........
	230	232.925	1.04147E+000	1.04253E+000	6.63090E-004	...........
	231	233.933	1.04157E+000	1.04224E+000	6.62907E-004	...........
	232	234.942	1.04181E+000	1.04217E+000	6.65382E-004	...........
	233	235.95	1.04205E+000	1.04190E+000	6.65573E-004	...........
	234	236.958	1.04215E+000	1.04196E+000	6.61698E-004	...........
	235	237.967	1.04213E+000	1.04176E+000	6.61007E-004	...........
	236	238.975	1.04204E+000	1.04216E+000	6.64857E-004	...........
	237	239.983	1.04199E+000	1.04264E+000	6.63290E-004	...........
	238	240.992	1.04205E+000	1.04321E+000	6.63940E-004	...........
	239	242	1.04223E+000	1.04123E+000	6.58498E-004	...........
	240	243.008	1.04237E+000	1.04192E+000	6.58590E-004	...........
	241	244.017	1.04231E+000	1.04183E+000	6.60432E-004	...........
	242	245.025	1.04212E+000	1.04255E+000	6.62848E-004	...........
	243	246.033	1.04198E+000	1.04101E+000	6.56890E-004	...........
	244	247.042	1.04191E+000	1.04118E+000	6.60815E-004	...........
	245	248.05	1.04175E+000	1.04057E+000	6.60740E-004	...........
	246	249.058	1.04146E+000	1.04070E+000	6.60023E-004	...........
	247	250.067	1.04115E+000	1.04121E+000	6.62165E-004	...........
	248	251.075	1.04096E+000	1.04233E+000	6.62032E-004	...........
	249	252.083	1.04105E+000	1.04249E+000	6.58682E-004	...........
	250	253.092	1.04138E+000	1.04124E+000	6.57673E-004	...........
	251	254.1	1.04172E+000	1.04174E+000	6.59398E-004	...........
	252	255.108	1.04186E+000	1.04168E+000	6.64923E-004	...........
	253	256.117	1.04180E+000	1.04128E+000	6.58232E-004	...........
	254	257.125	1.04166E+000	1.03987E+000	6.56865E-004	...........
	255	258.133	1.04141E+000	1.04139E+000	6.57748E-004	...........
	256	259.142	1.04112E+000	1.04102E+000	6.64107E-004	...........
	257	260.15	1.04097E+000	1.04233E+000	6.62232E-004	...........
	258	261.158	1.04105E+000	1.04105E+000	6.63190E-004	...........
	259	262.167	1.04128E+000	1.04209E+000	6.60623E-004	...........
	260	263.175	1.04148E+000	1.04057E+000	6.62857E-004	...........
	261	264.183	1.04152E+000	1.04139E+000	6.57082E-004	...........
	262	265.192	1.04144E+000	1.04176E+000	6.55415E-004	...........
	263	266.2	1.04136E+000	1.04153E+000	6.62532E-004	...........
	264	267.208	1.04138E+000	1.04130E+000	6.60482E-004	...........
	265	268.217	1.04144E+000	1.04158E+000	6.58257E-004	...........
	266	269.225	1.04148E+000	1.04177E+000	6.63323E-004	...........
	267	270.233	1.04152E+000	1.04181E+000	6.62065E-004	...........
	268	271.242	1.04160E+000	1.04224E+000	6.57040E-004	...........
	269	272.25	1.04174E+000	1.04258E+000	6.54073E-004	...........
	270	273.258	1.04192E+000	1.04134E+000	6.58673E-004	...........
	271	274.267	1.04202E+000	1.04095E+000	6.52540E-004	...........
	272	275.275	1.04192E+000	1.04137E+000	6.51115E-004	...........
	273	276.283	1.04171E+000	1.04366E+000	6.57590E-004	...........
	274	277.292	1.04166E+000	1.04126E+000	6.57315E-004	...........
	275	278.3	1.04182E+000	1.04153E+000	6.53382E-004	...........
	276	279.308	1.04198E+000	1.04338E+000	6.54940E-004	...........
	277	280.317	1.04207E+000	1.04190E+000	6.53623E-004	...........
	278	281.325	1.04217E+000	1.04192E+000	6.59457E-004	...........
	279	282.333	1.04225E+000	1.04255E+000	6.59157E-004	...........
	280	283.342	1.04226E+000	1.04247E+000	6.56682E-004	...........
	281	284.35	1.04227E+000	1.04225E+000	6.57648E-004	...........
	282	285.358	1.04229E+000	1.04121E+000	6.57057E-004	...........
	283	286.367	1.04222E+000	1.04142E+000	6.56165E-004	...........
